Index,Timestamp,Fp1,Fp2,F3,F4,T5,T6,O1,O2,F7,F8,C3,C4,T3,T4,P3,P4
0.0,0.0,0.0,0.0,0.0,0.0,0.0,0.0,0.0,0.0,0.0,0.0,0.0,0.0,0.0,0.0,0.0,0.0
1.0,0.00390625,-331599.930716,14133.097426,-1555001.742244,-11995.913028,-1446798.199034,-1807294.643795,-2176456.770475,-2542229.120997,-3518333.914081,-2477429.08924,-2483215.687658,-2443081.789384,-2434703.640306,-34447.614485,-2541695.897781,-2523568.454214
2.0,0.0078125,-331540.92211,14533.283059,-1555189.496897,-11854.292375,-1446788.54308,-1807277.477655,-2176623.067453,-2542217.319276,-3518311.919965,-2477434.453658,-2483213.005449,-2443060.331709,-2434880.666123,-34282.39039,-2541687.314711,-2523551.824516
3.0,0.01171875,-331465.283807,14596.046757,-1555300.003922,-11720.71835,-1446776.204917,-1807261.384399,-2176582.834313,-2542203.908229,-3518296.363151,-2477425.334147,-2483200.667286,-2443042.092686,-2434890.322076,-34124.140039,-2541684.09606,-2523536.267702
4.0,0.015625,-331441.680365,14361.621661,-1555385.834621,-11821.03298,-1446786.397312,-1807273.722562,-2176567.813941,-2542211.954857,-3518306.555546,-2477420.50617,-2483197.985077,-2443052.821523,-2434923.04503,-34264.151366,-2541688.387595,-2523542.168563
5.0,0.01953125,-331426.659993,14388.443755,-1555494.195878,-11863.948329,-1446769.767615,-1807258.70219,-2176742.69399,-2542190.497183,-3518285.634313,-2477396.366286,-2483174.918076,-2443033.509616,-2435082.904706,-34465.317066,-2541657.273967,-2523519.638004
6.0,0.0234375,-331382.671759,14780.582759,-1555608.457995,-11774.898979,-1446795.516824,-1807280.159864,-2176904.699433,-2542215.70995,-3518300.654686,-2477436.599426,-2483209.250356,-2443051.212198,-2435205.749894,-34345.69053,-2541685.168944,-2523541.095679
7.0,0.02734375,-331311.861433,14933.468692,-1555677.122554,-11579.634139,-1446812.682964,-1807292.498027,-2176867.148503,-2542233.948974,-3518316.2115,-2477463.421519,-2483230.171589,-2443066.23257,-2435154.787917,-34147.207039,-2541716.282572,-2523556.116051
8.0,0.03125,-331276.992712,14712.454642,-1555708.772625,-11646.152931,-1446784.787987,-1807269.431027,-2176810.285665,-2542206.053997,-3518294.217383,-2477424.797705,-2483193.1571,-2443043.702012,-2435118.30987,-34233.57418,-2541690.533363,-2523529.293958
9.0,0.03515625,-331262.508781,14665.247758,-1555764.026137,-11709.989513,-1446783.178661,-1807270.503911,-2176935.813062,-2542202.298904,-3518291.535174,-2477412.995984,-2483183.501146,-2443039.410477,-2435204.140568,-34451.90602,-2541678.1952,-2523525.002423
10.0,0.0390625,-331211.546804,15022.518041,-1555845.565301,-11604.310465,-1446781.569336,-1807265.675934,-2177099.427831,-2542198.543811,-3518282.415662,-2477423.188379,-2483191.011332,-2443030.827407,-2435342.54257,-34394.50674,-2541677.122316,-2523519.638004
11.0,0.04296875,-331150.392431,15190.960788,-1555888.48065,-11440.159254,-1446771.37694,-1807253.874213,-2177078.506598,-2542182.450555,-3518262.030871,-2477417.823961,-2483182.964704,-2443013.124825,-2435318.402686,-34164.373179,-2541673.367223,-2523503.544748
12.0,0.046875,-331143.418687,14679.731688,-1555873.460278,-11482.538162,-1446769.231173,-1807252.801329,-2176980.874179,-2542171.721717,-3518253.984243,-2477395.829844,-2483160.434146,-2443004.005313,-2435221.84315,-34193.877482,-2541665.320595,-2523490.670143
13.0,0.05078125,-331167.558571,14861.049039,-1555883.116231,-11572.660395,-1446786.933754,-1807275.86833,-2177064.022668,-2542185.669206,-3518272.759708,-2477397.975611,-2483169.017216,-2443020.098569,-2435270.122918,-34419.183066,-2541672.830781,-2523505.154074
14.0,0.0546875,-331134.299175,15348.138255,-1555936.760418,-11508.823813,-1446816.438057,-1807302.690423,-2177236.220507,-2542212.491299,-3518294.753825,-2477433.917217,-2483204.958821,-2443045.311337,-2435381.166384,-34421.328833,-2541697.507107,-2523530.903283
15.0,0.05859375,-331076.899895,15656.592328,-1555979.675767,-11318.38695,-1446814.29229,-1807295.180237,-2177246.412903,-2542210.881974,-3518282.952104,-2477444.646054,-2483210.859681,-2443038.874035,-2435369.364663,-34176.1749,-2541707.699502,-2523526.611749
16.0,0.0625,-330988.923429,15484.930931,-1555724.865881,-11275.471601,-1446477.406797,-1806962.586279,-2176895.579922,-2541874.532923,-3517946.603053,-2477096.495282,-2482865.927561,-2442700.915659,-2434990.636705,-34104.828132,-2541377.787754,-2523188.11693
17.0,0.06640625,-328630.724982,13957.680936,-1545069.521078,-10468.126591,-1432740.203469,-1793341.790836,-2167024.513128,-2528295.579946,-3504491.031705,-2463381.822512,-2469220.992234,-2429046.324378,-2422807.505465,-31997.684478,-2527798.298335,-2509631.15807
18.0,0.0703125,-329734.185902,14751.614899,-1548358.446164,-10797.501898,-1439235.441594,-1799897.11045,-2170496.901333,-2534713.034,-3510979.296086,-2469827.171543,-2475794.014429,-2435627.929643,-2425389.400171,-32952.551002,-2534359.518809,-2516171.993753
19.0,0.07421875,-331089.7745,15996.16003,-1553698.188507,-11135.996716,-1446863.644941,-1807462.550099,-2175722.918001,-2542237.704067,-3518418.135454,-2477441.963845,-2483361.063404,-2443189.077757,-2431837.431411,-34137.014644,-2541880.970225,-2523691.299402
20.0,0.078125,-331005.553127,15913.011541,-1553737.348764,-11125.267878,-1446863.644941,-1807431.972913,-2175688.585721,-2542246.287137,-3518387.021826,-2477450.546914,-2483327.267567,-2443156.354804,-2432514.421047,-34059.230573,-2541850.393039,-2523664.477308
21.0,0.08203125,-330986.777662,15693.606817,-1553928.85851,-11242.212205,-1446874.373779,-1807425.53561,-2175807.675816,-2542259.161742,-3518381.657407,-2477456.984217,-2483310.101427,-2443146.162408,-2433158.68773,-34260.396273,-2541828.935364,-2523649.993378
22.0,0.0859375,-330964.247103,15852.930051,-1554200.298095,-11230.946926,-1446880.274639,-1807415.879657,-2176086.089144,-2542265.062602,-3518373.074338,-2477473.077473,-2483303.664124,-2443135.433571,-2433763.257714,-34386.996554,-2541811.769225,-2523636.582331
23.0,0.08984375,-330907.920707,16244.532614,-1554494.80468,-11057.139761,-1446863.644941,-1807385.838912,-2176267.406496,-2542247.360021,-3518335.523407,-2477471.468147,-2483288.10731,-2443102.174175,-2434181.68237,-34170.810481,-2541792.457317,-2523602.786494
24.0,0.09375,-330867.151125,16235.949544,-1554714.209403,-10973.45483,-1446860.962732,-1807377.792284,-2176256.677658,-2542245.214253,-3518324.79457,-2477470.395263,-2483278.451357,-2443088.763128,-2434325.985232,-33895.615804,-2541787.629341,-2523589.911889
25.0,0.09765625,-330865.005358,15996.16003,-1554906.792034,-11070.550808,-1446848.624569,-1807368.136331,-2176316.222705,-2542231.266765,-3518322.11236,-2477454.302007,-2483252.165705,-2443077.497849,-2434512.13056,-33959.988828,-2541749.005526,-2523572.745749
26.0,0.1015625,-330854.812962,16082.52717,-1555110.639943,-11081.279645,-1446866.327151,-1807385.838912,-2176543.674057,-2542249.505788,-3518337.669174,-2477474.686798,-2483267.722519,-2443093.591105,-2434762.11247,-34329.060832,-2541750.614852,-2523584.54747
27.0,0.10546875,-330802.241659,16489.150106,-1555313.414969,-10934.831015,-1446863.644941,-1807372.427866,-2176721.772757,-2542244.677811,-3518318.893709,-2477484.342752,-2483272.550496,-2443080.180059,-2434953.622216,-34155.790109,-2541749.005526,-2523570.599982
28.0,0.109375,-330735.186426,16567.470618,-1555436.796598,-10794.819688,-1446850.233895,-1807352.579516,-2176696.023547,-2542228.048113,-3518298.508918,-2477471.468147,-2483257.530124,-2443059.795268,-2434962.741728,-33959.452386,-2541743.104666,-2523552.360958
29.0,0.11328125,-330725.530472,16322.853127,-1555529.064599,-10894.597875,-1446840.041499,-1807348.287982,-2176684.758268,-2542216.782834,-3518290.998732,-2477451.083356,-2483237.145333,-2443052.285081,-2434977.7621,-34058.694131,-2541732.91227,-2523541.095679
30.0,0.1171875,-330736.25931,16324.462452,-1555641.180949,-10937.513225,-1446843.26015,-1807354.188842,-2176860.174758,-2542217.319276,-3518296.899593,-2477451.619798,-2483236.072449,-2443057.6495,-2435112.945451,-34244.839459,-2541728.084293,-2523541.095679
31.0,0.12109375,-330715.874519,16711.77348,-1555764.562579,-10852.218968,-1446844.869476,-1807345.605772,-2177031.836156,-2542213.564183,-3518281.342778,-2477458.057101,-2483238.754659,-2443044.774895,-2435254.029662,-34119.848504,-2541724.3292,-2523533.049051
32.0,0.125,-330654.183704,16876.997575,-1555837.518673,-10647.834617,-1446845.94236,-1807345.605772,-2176985.165713,-2542217.855718,-3518279.197011,-2477467.176612,-2483244.655519,-2443041.556244,-2435226.134685,-33752.385825,-2541737.740247,-2523534.658377
33.0,0.12890625,-330646.137076,16647.400456,-1555867.559417,-10708.988989,-1446853.452546,-1807359.016819,-2176907.918085,-2542225.365904,-3518300.654686,-2477472.004589,-2483248.410612,-2443053.894407,-2435206.286336,-33620.957568,-2541729.693619,-2523544.850772
34.0,0.1328125,-330661.157448,16573.907921,-1555927.640906,-10782.481525,-1446850.233895,-1807359.016819,-2177021.107319,-2542220.001485,-3518300.654686,-2477462.885077,-2483240.363984,-2443053.357965,-2435285.679732,-34094.099294,-2541706.626619,-2523538.949911
35.0,0.13671875,-330631.116704,16924.740902,-1556013.471605,-10696.114385,-1446848.088127,-1807355.261726,-2177183.649204,-2542217.319276,-3518290.46229,-2477473.077473,-2483244.655519,-2443047.457105,-2435398.332524,-34055.47548,-2541706.090177,-2523535.194818
36.0,0.140625,-330584.446261,17172.040602,-1556066.57935,-10502.995313,-1446843.26015,-1807343.460005,-2177153.072018,-2542209.80909,-3518272.223267,-2477474.686798,-2483241.97331,-2443032.973174,-2435370.437547,-33787.254547,-2541710.381712,-2523525.002423
37.0,0.14453125,-330557.087726,16971.947786,-1556065.506466,-10525.525871,-1446847.551685,-1807351.506633,-2177037.737016,-2542215.173509,-3518277.587685,-2477468.249496,-2483237.145333,-2443037.264709,-2435296.945011,-33765.796872,-2541720.574107,-2523526.611749
38.0,0.1484375,-330585.519145,16828.717807,-1556096.620094,-10625.8405,-1446835.749964,-1807344.532888,-2177102.11004,-2542199.616694,-3518273.832592,-2477447.328263,-2483218.906309,-2443028.681639,-2435337.178151,-33956.233735,-2541703.407967,-2523514.810027
39.0,0.15234375,-330568.353005,17093.183648,-1556152.410049,-10584.534476,-1446859.353406,-1807367.599889,-2177257.678182,-2542221.610811,-3518289.925848,-2477475.22324,-2483248.410612,-2443047.457105,-2435457.341129,-33946.577781,-2541724.3292,-2523537.340586
40.0,0.15625,-330540.99447,17094.256532,-1556189.424537,-10367.27552,-1446878.128872,-1807381.010935,-2177258.751066,-2542232.339648,-3518287.780081,-2477493.462264,-2483265.576752,-2443051.212198,-2435462.705548,-33598.427009,-2541744.177549,-2523544.31433
41.0,0.16015625,-330524.364772,17015.399577,-1556171.185514,-10338.844101,-1446880.811081,-1807384.766028,-2177125.177041,-2542228.584555,-3518296.363151,-2477491.852938,-2483258.066566,-2443051.74864,-2435344.151896,-33250.276238,-2541733.448712,-2523540.559237
42.0,0.1640625,-329850.593788,16749.860853,-1553000.81408,-10206.34296,-1442648.821193,-1803185.499094,-2174189.230703,-2538035.754923,-3514137.865798,-2473257.717283,-2479034.123306,-2438834.779124,-2431789.688085,-33025.507096,-2537511.651219,-2519347.729605
43.0,0.16796875,-327696.24325,15634.06177,-1542939.310424,-9394.169974,-1430650.762397,-1791330.133835,-2165071.864733,-2526184.681199,-3502448.797518,-2461278.970394,-2467191.096209,-2426964.393492,-2419769.098731,-30957.523699,-2525730.85138,-2507572.830626
44.0,0.171875,-330321.589747,17621.042445,-1552725.082961,-10095.299494,-1445276.849899,-1805926.180592,-2174521.288219,-2540620.86828,-3516838.314156,-2475843.367081,-2481795.726037,-2441581.897924,-2430141.73867,-33158.544679,-2540280.764136,-2522090.020429
45.0,0.17578125,-330572.108099,17748.179167,-1553853.220207,-10140.360611,-1446909.2425,-1807512.439193,-2175593.099069,-2542236.631183,-3518391.849803,-2477476.296124,-2483369.646474,-2443161.719222,-2432153.395671,-33364.538355,-2541853.075248,-2523671.987494
46.0,0.1796875,-330562.988587,17505.707443,-1553991.622209,-10268.570217,-1446881.883965,-1807464.695867,-2175685.903512,-2542217.855718,-3518347.325128,-2477447.864705,-2483308.492101,-2443109.684361,-2432874.37354,-33518.497171,-2541791.384434,-2523618.343308
47.0,0.18359375,-328315.833606,16422.631314,-1546065.693625,-9593.189906,-1435515.753688,-1796207.999731,-2168445.011192,-2531165.543934,-3507526.219788,-2466301.675594,-2472169.276735,-2431939.355366,-2424607.804371,-31720.880475,-2530700.448835,-2512545.646733
48.0,0.1875,-315263.666542,10031.999353,-1504133.642213,-5856.335861,-1380270.824465,-1740793.554877,-2130775.526854,-2478538.987462,-3457913.393726,-2413379.003212,-2419724.037614,-2379310.116686,-2380313.799419,-20596.149039,-2478643.593626,-2460474.844035
49.0,0.19140625,-308314.062156,6817.639687,-1486110.268368,-4054.42763,-1357470.972237,-1718403.007794,-2116983.070014,-2459080.095181,-3442939.691894,-2394250.559121,-2401454.973394,-2360803.408719,-2364305.837668,-14797.212457,-2460741.992085,-2442235.82056
50.0,0.1953125,-310030.67613,7619.620278,-1489490.388571,-4592.478823,-1364879.234419,-1723183.777712,-2123269.632252,-2466871.376857,-3454045.647865,-2407215.286161,-2414900.888789,-2372751.578421,-2369047.447329,-15921.058169,-2474592.921089,-2452382.618473
51.0,0.19921875,-325646.498876,14802.576876,-1513291.777765,-8186.639331,-1413422.395399,-1757975.787875,-2143989.699362,-2499012.827756,-3484976.34947,-2452082.211027,-2459653.551537,-2417336.871307,-2385749.564856,-27466.360029,-2518709.363784,-2490466.772374
52.0,0.203125,-331367.651387,18460.573967,-1525972.727057,-9553.493208,-1443794.124579,-1784933.064572,-2156269.92658,-2520094.993126,-3512863.279922,-2476217.803504,-2483466.742452,-2443058.722384,-2401637.363629,-32505.158485,-2542021.517995,-2517525.436583
53.0,0.20703125,-331230.858711,18653.693039,-1528893.653022,-9584.606836,-1447110.944642,-1794969.891902,-2158293.385302,-2526156.786222,-3518755.020947,-2477525.112334,-2484375.474975,-2444129.46035,-2409181.345604,-32650.534231,-2542859.976633,-2523843.11245
54.0,0.2109375,-331002.870918,18352.212709,-1531870.905384,-9750.367373,-1447102.361572,-1800526.893202,-2159817.416646,-2530963.30535,-3518989.446043,-2477553.543753,-2484149.096507,-2443888.597952,-2414647.151786,-32788.39979,-2542603.55742,-2524548.533505
55.0,0.21484375,-330869.296893,18299.641406,-1534952.763909,-9813.667514,-1447056.227572,-1803702.092612,-2161476.631341,-2534844.462257,-3518834.414343,-2477561.590381,-2483983.872412,-2443709.426368,-2418886.65186,-33004.049421,-2542400.782395,-2524343.07627
56.0,0.21875,-330726.603356,18663.348992,-1537872.616991,-9665.073116,-1447033.697013,-1805839.813452,-2163054.843313,-2537764.851781,-3518713.714923,-2477588.948916,-2483882.484899,-2443578.534553,-2422168.603202,-32905.880559,-2542272.572788,-2524187.508129
57.0,0.22265625,-330575.32675,18823.74511,-1540467.922743,-9558.321185,-1447040.670757,-1807297.326004,-2164326.210538,-2539980.356691,-3518627.884224,-2477612.552358,-2483812.211014,-2443487.875877,-2424575.081417,-32675.210556,-2542196.398043,-2524076.464662
58.0,0.2265625,-330489.496051,18563.034363,-1542718.832817,-9649.516302,-1447018.140199,-1807748.473614,-2165437.181644,-2541629.915432,-3518546.881502,-2477589.485358,-2483719.406571,-2443402.045179,-2426424.732974,-32710.61572,-2542106.812251,-2523970.785614
59.0,0.23046875,-330460.52819,18448.772245,-1544678.454957,-9740.174978,-1447017.603757,-1807747.400731,-2166623.791054,-2542278.473649,-3518512.012781,-2477596.995544,-2483673.809013,-2443358.593387,-2427976.659295,-32915.000071,-2542049.949414,-2523911.777009
60.0,0.234375,-330397.22805,18773.856017,-1546387.022303,-9668.828209,-1446995.073199,-1807693.220102,-2167761.584254,-2542303.149975,-3518455.686385,-2477600.214195,-2483627.675012,-2443295.829689,-2429287.186776,-32734.755604,-2541989.331483,-2523842.576008
61.0,0.23828125,-330321.053305,19022.228601,-1547832.196692,-9485.365091,-1446983.271478,-1807653.523404,-2168633.838729,-2542297.785556,-3518421.890548,-2477618.989661,-2483599.243593,-2443251.841456,-2430207.72102,-32166.127225,-2541936.223738,-2523793.759798
62.0,0.2421875,-330266.336234,18809.797622,-1549018.26966,-9519.160929,-1446962.886687,-1807616.508915,-2169329.067389,-2542282.228742,-3518390.776919,-2477601.287079,-2483553.109593,-2443214.826967,-2430889.538633,-32461.170252,-2541873.460039,-2523748.698681
63.0,0.24609375,-330258.826048,18640.281992,-1550043.94651,-9622.157767,-1446949.47564,-1807593.441915,-2170106.908096,-2542269.890579,-3518366.637035,-2477586.266707,-2483516.631546,-2443186.93199,-2431549.362129,-32787.326907,-2541833.763341,-2523713.293518
64.0,0.25,-330219.665792,18916.013112,-1550950.533265,-9561.003394,-1446955.912942,-1807583.249519,-2170911.034454,-2542272.572788,-3518348.934454,-2477602.359963,-2483512.340011,-2443170.302292,-2432193.628811,-32803.956604,-2541820.352294,-2523695.590937
65.0,0.25390625,-330155.82921,19240.560441,-1551720.327344,-9386.123346,-1446961.813803,-1807568.765589,-2171503.802717,-2542276.327881,-3518333.914081,-2477622.208312,-2483513.412894,-2443156.891245,-2432629.756049,-32538.954322,-2541823.034504,-2523682.716332
66.0,0.2578125,-329606.512738,18784.048412,-1550308.41235,-9215.534832,-1443965.785976,-1804580.78439,-2170108.517421,-2539327.506939,-3515409.769465,-2474642.273741,-2480525.431696,-2440171.592256,-2430569.282838,-32015.923502,-2538865.09405,-2520722.093668
67.0,0.26171875,-326483.884631,16604.485107,-1538472.358998,-8470.417079,-1427837.661247,-1788509.522499,-2159645.755249,-2523592.057656,-3500012.815,-2458712.096061,-2464715.416994,-2424340.119879,-2416253.795177,-29271.486911,-2523167.195698,-2505043.507224
68.0,0.265625,-328254.142792,17790.021633,-1542972.56982,-8791.209315,-1435976.02081,-1796597.992968,-2164041.359906,-2531443.420821,-3507792.831396,-2466653.045017,-2472760.435672,-2432411.424209,-2420329.14404,-30734.900324,-2531153.742213,-2513017.179134
69.0,0.26953125,-327646.354156,17765.881749,-1539609.615756,-8397.460985,-1432734.83905,-1792852.555853,-2161316.771664,-2528193.119549,-3504568.815776,-2463385.577605,-2469561.632819,-2429193.309449,-2416306.36648,-29739.800661,-2527961.913104,-2509837.688188
70.0,0.2734375,-330114.523186,19404.711652,-1548902.934659,-9139.896529,-1446642.630892,-1807244.218259,-2170041.99863,-2541920.130482,-3518173.517963,-2477233.287958,-2483352.480334,-2443009.906174,-2426963.85705,-32081.36941,-2541686.241828,-2523561.48047
71.0,0.27734375,-330124.715582,19191.744231,-1549673.26518,-9314.776577,-1447017.067315,-1807739.354103,-2170793.553685,-2542299.394882,-3518480.362711,-2477615.771009,-2483648.059803,-2443314.068712,-2428827.456096,-32391.432809,-2541971.628901,-2523868.325218
72.0,0.28125,-330058.733232,19296.350395,-1550379.222677,-9305.120624,-1446993.463873,-1807678.736172,-2171470.00688,-2542285.447393,-3518415.989687,-2477608.260823,-2483585.832546,-2443245.404154,-2430228.642253,-32525.006834,-2541894.381272,-2523793.223356
73.0,0.28515625,-329967.001673,19687.416516,-1551127.022639,-9156.526227,-1447006.87492,-1807656.742055,-2172055.264956,-2542299.394882,-3518389.167594,-2477644.73887,-2483582.077453,-2443219.654944,-2431296.69801,-32316.330947,-2541882.579551,-2523764.791937
74.0,0.2890625,-329899.946439,19675.078353,-1551786.309694,-9074.450621,-1447031.014804,-1807659.424264,-2172411.462356,-2542325.144091,-3518391.313361,-2477674.779615,-2483584.223221,-2443220.191386,-2431989.780902,-32142.523783,-2541895.454156,-2523761.036844
75.0,0.29296875,-329884.389625,19384.326861,-1552378.005073,-9203.196669,-1446997.218966,-1807618.118241,-2172782.143686,-2542295.103347,-3518354.298872,-2477636.692242,-2483527.896825,-2443177.276036,-2432578.794072,-32262.686761,-2541846.101504,-2523709.538425
76.0,0.296875,-329864.541276,19403.638769,-1552932.685963,-9243.966251,-1446994.000315,-1807604.707194,-2173295.518553,-2542291.348254,-3518341.424267,-2477635.619358,-2483509.121359,-2443161.18278,-2433127.574101,-32423.619321,-2541821.96162,-2523687.544309
77.0,0.30078125,-329804.996229,19790.949797,-1553446.597272,-9131.849901,-1447009.557129,-1807604.707194,-2173754.176349,-2542301.540649,-3518332.304756,-2477662.441452,-2483520.923081,-2443155.28192,-2433549.217409,-32255.713016,-2541830.008248,-2523685.934983
78.0,0.3046875,-329748.669833,19866.051658,-1553856.9753,-8982.18262,-1447021.35885,-1807606.852961,-2173987.528561,-2542312.805928,-3518330.158988,-2477675.316057,-2483526.823941,-2443159.573455,-2433779.35097,-31982.664106,-2541843.419295,-2523685.934983
79.0,0.30859375,-329748.669833,19566.180654,-1554187.42349,-9094.29897,-1447019.749525,-1807603.097868,-2174192.985796,-2542311.196603,-3518336.059849,-2477668.342312,-2483508.584918,-2443156.354804,-2433949.939483,-31849.626523,-2541824.643829,-2523676.279029
80.0,0.3125,-329759.935112,19490.005909,-1554499.096215,-9157.59911,-1447002.583385,-1807585.395287,-2174563.667126,-2542292.421137,-3518320.503035,-2477647.957521,-2483480.153499,-2443136.506455,-2434211.723114,-32258.931668,-2541782.264922,-2523654.284913
81.0,0.31640625,-329719.16553,19831.182937,-1554795.748567,-9037.436132,-1446995.073199,-1807567.692705,-2174933.275572,-2542279.546533,-3518295.290267,-2477647.42108,-2483474.252638,-2443116.658105,-2434446.684652,-32203.678155,-2541770.463201,-2523636.582331
82.0,0.3203125,-329662.839134,19984.068869,-1555019.981267,-8910.29941,-1446984.344361,-1807551.063007,-2175085.088621,-2542268.281253,-3518273.832592,-2477639.374452,-2483461.378033,-2443096.809756,-2434518.567862,-31959.060664,-2541766.708108,-2523618.87975
83.0,0.32421875,-329674.104413,19693.853819,-1555178.76806,-9013.296248,-1446967.714663,-1807536.579077,-2175163.409133,-2542248.432904,-3518256.666452,-2477609.333707,-2483429.191521,-2443079.107175,-2434551.290816,-31984.809874,-2541750.614852,-2523596.349191
84.0,0.328125,-329706.290925,19528.093282,-1555340.773504,-9110.928668,-1446985.417245,-1807557.50031,-2175408.026625,-2542265.599044,-3518276.514802,-2477614.698126,-2483435.092382,-2443096.273315,-2434676.818213,-32189.730667,-2541758.66148,-2523611.369564
85.0,0.33203125,-329680.541716,19810.261704,-1555508.143366,-9035.826807,-1446997.755408,-1807562.864728,-2175707.361186,-2542276.864323,-3518281.342778,-2477632.937149,-2483447.966987,-2443103.247059,-2434868.864401,-32155.398387,-2541766.708108,-2523617.806866
86.0,0.3359375,-329629.043296,20032.348637,-1555642.790275,-8881.867991,-1446988.635896,-1807549.453682,-2175819.477537,-2542268.281253,-3518259.348662,-2477629.718498,-2483443.675452,-2443089.836012,-2434906.951774,-31902.197826,-2541770.999643,-2523604.932261
87.0,0.33984375,-329625.288203,19768.95568,-1555721.647229,-8939.803712,-1446980.052826,-1807543.016379,-2175814.64956,-2542259.161742,-3518250.765592,-2477605.578614,-2483422.217777,-2443081.789384,-2434861.890657,-31882.349477,-2541764.56234,-2523595.812749
88.0,0.34375,-329666.057785,19523.265305,-1555804.795719,-9089.470993,-1446984.880803,-1807551.599449,-2175972.363469,-2542262.916835,-3518262.567313,-2477599.141312,-2483415.244033,-2443089.29957,-2434930.555216,-32101.217759,-2541762.953015,-2523600.104284
89.0,0.34765625,-329660.693367,19719.066586,-1555908.328999,-9059.430249,-1446984.344361,-1807549.453682,-2176229.319123,-2542260.771067,-3518256.130011,-2477602.896405,-2483413.634707,-2443081.789384,-2435086.659799,-32112.483038,-2541755.442829,-2523592.594098
90.0,0.3515625,-329617.778017,19991.042613,-1556002.742768,-8880.258665,-1446964.496012,-1807524.777356,-2176326.415101,-2542241.45916,-3518233.599452,-2477598.60487,-2483400.760102,-2443056.040174,-2435102.216614,-31548.146194,-2541731.302945,-2523570.599982
91.0,0.35546875,-329606.512738,19777.002308,-1556032.783512,-8916.20027,-1446963.423129,-1807523.16803,-2176267.942937,-2542239.313393,-3518237.354545,-2477591.094684,-2483389.494823,-2443054.967291,-2435015.313031,-31600.181055,-2541707.163061,-2523568.454214
92.0,0.359375,-329676.250181,19359.114094,-1556069.261559,-9094.835412,-1446989.70878,-1807553.208775,-2176338.753264,-2542259.161742,-3518265.785964,-2477595.386218,-2483393.786358,-2443078.034291,-2435042.135124,-32058.302409,-2541713.063921,-2523589.375447
93.0,0.36328125,-329597.393226,19075.336346,-1555540.329878,-9050.847179,-1446196.847701,-1806764.102788,-2176015.278818,-2541458.790476,-3517467.024024,-2476790.186976,-2482588.587116,-2442271.762165,-2434485.308467,-32079.760084,-2540903.573144,-2522787.394856
94.0,0.3671875,-327033.201102,17997.624635,-1544210.141207,-8178.592703,-1431666.246851,-1792352.055592,-2165663.02367,-2527106.288327,-3503238.439946,-2462311.084546,-2468182.44078,-2427829.674224,-2421431.532077,-29520.395937,-2526573.065111,-2508459.03259
95.0,0.37109375,-328684.369169,19089.820276,-1549616.402342,-8619.011476,-1441028.766755,-1801760.709496,-2170857.926709,-2536355.618996,-3512533.904616,-2471600.111914,-2477587.33959,-2437267.295988,-2426327.636996,-30739.191859,-2535973.672387,-2517828.526238
96.0,0.375,-329857.567532,19539.358561,-1553792.602276,-9094.29897,-1447064.810641,-1807745.254963,-2174934.884898,-2542304.7593,-3518415.989687,-2477600.750637,-2483538.08922,-2443244.33127,-2431591.204595,-32007.340432,-2541892.771947,-2523768.547031
97.0,0.37890625,-329848.44802,19549.550956,-1553918.666115,-9121.121063,-1447058.373339,-1807707.704032,-2175216.516878,-2542302.077091,-3518375.756547,-2477601.823521,-2483496.246755,-2443199.270153,-2432480.62521,-32187.584899,-2541837.518434,-2523726.168123
98.0,0.3828125,-329803.923345,19860.150797,-1554187.959932,-8961.261387,-1447062.128432,-1807681.954823,-2175458.988602,-2542305.295742,-3518347.325128,-2477621.135428,-2483486.590801,-2443171.911618,-2433173.17166,-32031.480316,-2541821.425178,-2523702.028239
99.0,0.38671875,-329754.570693,19786.658262,-1554437.941842,-8970.380899,-1447043.889409,-1807646.54966,-2175499.221742,-2542287.593161,-3518313.52929,-2477602.359963,-2483449.576312,-2443135.970013,-2433565.310665,-31892.541873,-2541794.603085,-2523664.477308
100.0,0.390625,-329777.101252,19410.612513,-1554675.049147,-9159.208436,-1447022.431734,-1807623.482659,-2175575.396487,-2542269.890579,-3518290.998732,-2477570.709893,-2483407.733847,-2443112.903012,-2433867.327436,-32044.891363,-2541761.880131,-2523632.827238
101.0,0.39453125,-329809.287764,19337.656419,-1554930.395476,-9231.091646,-1447018.140199,-1807618.118241,-2175838.253002,-2542262.916835,-3518280.806336,-2477564.27259,-2483391.104149,-2443103.247059,-2434207.968021,-32255.176575,-2541743.104666,-2523618.87975
102.0,0.3984375,-329789.439415,19646.110492,-1555180.913828,-9110.928668,-1447034.233455,-1807621.873334,-2176072.141656,-2542274.182114,-3518282.415662,-2477589.485358,-2483407.733847,-2443102.174175,-2434497.110188,-32141.450899,-2541753.297061,-2523623.171285
103.0,0.40234375,-328145.245093,18716.993179,-1549141.114848,-8603.454662,-1438447.944933,-1799089.76544,-2170435.210518,-2533878.866896,-3510027.111772,-2469121.214047,-2474953.410024,-2434630.684213,-2427705.21971,-30602.399183,-2533351.008099,-2515216.590788
104.0,0.40625,-322022.297623,14688.314758,-1525973.263499,-7132.531063,-1409751.523704,-1769619.258597,-2149519.878569,-2506076.157817,-3483095.047843,-2440976.255056,-2447106.712712,-2406739.462225,-2401161.003251,-25308.79084,-2505710.304464,-2487583.397339
105.0,0.41015625,-328757.861705,18358.11357,-1545715.397086,-8897.961247,-1440790.050124,-1800011.909009,-2168252.428562,-2536230.091599,-3512754.918665,-2471381.243632,-2477641.520219,-2437370.829269,-2420896.699535,-30885.104046,-2536098.1269,-2517948.689216
106.0,0.4140625,-330116.132512,19530.775491,-1550093.299162,-9108.246459,-1447117.381944,-1807726.479498,-2172669.490894,-2542322.461882,-3518560.292549,-2477571.782776,-2483686.147176,-2443411.16469,-2427220.276263,-32139.841573,-2542073.016414,-2523968.103405
107.0,0.41796875,-329994.360208,19631.09012,-1550504.213632,-9031.535272,-1447103.434456,-1807847.178918,-2172946.294897,-2542318.170347,-3518469.633874,-2477584.120939,-2483604.07157,-2443311.386503,-2428948.691958,-31953.696245,-2541982.89418,-2523879.590497
108.0,0.421875,-329939.643137,19285.085116,-1551090.544592,-9202.660227,-1447066.956409,-1807774.759266,-2173184.475086,-2542293.494021,-3518398.287105,-2477553.007311,-2483517.704429,-2443233.065991,-2430289.796625,-32020.215037,-2541901.891458,-2523792.686915
109.0,0.42578125,-329947.153324,19052.269346,-1551743.930786,-9351.254624,-1447053.00892,-1807735.599009,-2173595.925998,-2542280.619416,-3518360.736175,-2477538.523381,-2483464.060243,-2443191.223525,-2431385.747359,-32271.269831,-2541843.955737,-2523737.433402
110.0,0.4296875,-329913.893928,19271.137627,-1552400.535631,-9250.939995,-1447056.227572,-1807715.75066,-2174068.531283,-2542282.228742,-3518338.742058,-2477554.616637,-2483449.576312,-2443168.692967,-2432255.319626,-32292.191063,-2541820.888736,-2523710.611309
111.0,0.43359375,-329848.984462,19463.183816,-1552988.475917,-9125.94904,-1447058.373339,-1807695.902311,-2174351.236147,-2542283.301626,-3518317.284383,-2477565.345474,-2483441.529684,-2443147.771734,-2432834.1404,-32074.395665,-2541814.987876,-2523686.471425
112.0,0.4375,-329814.115741,19177.260301,-1553457.326109,-9259.523065,-1447049.790269,-1807677.126846,-2174491.783916,-2542276.327881,-3518298.508918,-2477549.252218,-2483409.879614,-2443127.386943,-2433201.603079,-32074.395665,-2541795.139527,-2523661.258657
113.0,0.44140625,-329844.692927,18888.118135,-1553888.62537,-9433.33023,-1447055.154688,-1807680.881939,-2174772.343012,-2542281.6923,-3518302.800453,-2477544.424241,-2483394.3228,-2443127.923385,-2433574.430177,-32312.039413,-2541782.264922,-2523655.357797
114.0,0.4453125,-329850.593788,19043.149834,-1554295.248305,-9380.758927,-1447056.764013,-1807673.371753,-2175146.779435,-2542277.937207,-3518289.389406,-2477546.033567,-2483384.130404,-2443115.04878,-2433959.595437,-32388.750599,-2541764.56234,-2523640.873866
115.0,0.44921875,-329816.261508,19296.350395,-1554646.081286,-9252.549321,-1447046.571618,-1807649.768311,-2175357.601089,-2542265.599044,-3518258.275778,-2477542.814916,-2483374.474451,-2443089.836012,-2434208.504463,-32168.272992,-2541755.97927,-2523617.806866
116.0,0.453125,-329788.902973,19068.362602,-1554885.870801,-9319.068112,-1447034.233455,-1807634.211497,-2175403.198648,-2542253.260881,-3518242.182522,-2477522.966566,-2483349.798125,-2443074.81564,-2434279.851232,-32111.946596,-2541747.932642,-2523598.494959
117.0,0.45703125,-329828.063229,18733.086435,-1555094.546687,-9501.994789,-1447047.10806,-1807651.377636,-2175562.521882,-2542265.599044,-3518262.030871,-2477521.893683,-2483345.50659,-2443089.836012,-2434409.133721,-32334.569971,-2541750.07841,-2523607.61447
118.0,0.4609375,-329831.818322,18805.506087,-1555312.342085,-9505.21344,-1447055.154688,-1807657.278497,-2175847.908956,-2542269.890579,-3518262.567313,-2477527.794543,-2483347.115916,-2443090.372454,-2434624.783352,-32470.826205,-2541746.859759,-2523608.150912
119.0,0.46484375,-328858.712776,18482.568083,-1551354.473991,-9066.403993,-1441493.861853,-1802121.19843,-2172211.36954,-2536774.043652,-3512795.151805,-2471996.006011,-2477822.301128,-2437542.490666,-2430084.33939,-31418.863704,-2536244.57553,-2518103.184474
120.0,0.46875,-326854.565961,16821.744063,-1542232.816486,-8462.370451,-1430774.680468,-1791542.028373,-2163864.33409,-2526212.576176,-3502431.631378,-2461310.084022,-2467271.026048,-2426984.241841,-2418806.722022,-29196.385049,-2525775.912497,-2507630.766348
121.0,0.47265625,-329773.882601,18353.822035,-1552482.074795,-9469.808277,-1445983.343838,-1806724.40609,-2173606.654836,-2541188.960217,-3517337.205093,-2476397.51153,-2482387.421416,-2442149.453419,-2429803.243852,-31952.623362,-2540819.888213,-2522683.325134
122.0,0.4765625,-329984.167812,18665.49476,-1553350.037736,-9566.367813,-1447101.288688,-1807796.753382,-2174653.252918,-2542290.811812,-3518374.147221,-2477515.992822,-2483443.675452,-2443207.316781,-2431651.822525,-32479.409275,-2541853.61169,-2523745.48003
123.0,0.48046875,-329927.304974,18963.219996,-1553633.279041,-9401.143718,-1447086.268316,-1807746.864289,-2174939.176433,-2542276.327881,-3518321.039477,-2477518.675032,-2483407.197405,-2443154.209036,-2432496.718466,-32328.66911,-2541808.550573,-2523693.981611
124.0,0.484375,-329865.077718,18895.091879,-1553935.832254,-9405.971695,-1447075.539479,-1807716.287102,-2175026.080015,-2542269.890579,-3518295.290267,-2477514.383497,-2483377.15666,-2443122.558966,-2433010.629774,-32183.293364,-2541788.702224,-2523659.11289
125.0,0.48828125,-329869.905695,18514.218153,-1554234.093932,-9606.064511,-1447071.784386,-1807706.094707,-2175142.487901,-2542268.817695,-3518285.097871,-2477500.97245,-2483349.798125,-2443110.220803,-2433454.80364,-32330.814878,-2541769.926759,-2523641.94675
126.0,0.4921875,-329891.363369,18410.684873,-1554543.62089,-9687.067233,-1447060.519106,-1807689.465009,-2175440.749579,-2542255.406649,-3518267.39529,-2477485.952078,-2483321.366706,-2443091.98178,-2433895.222413,-32543.245857,-2541738.813131,-2523616.733982
127.0,0.49609375,-329868.296369,18699.290597,-1554845.637661,-9563.149162,-1447055.154688,-1807670.689544,-2175727.209536,-2542248.432904,-3518244.864731,-2477490.243613,-2483315.465846,-2443070.524105,-2434256.247789,-32435.421042,-2541725.402084,-2523596.349191
128.0,0.5,-329829.136113,18726.649133,-1555078.989873,-9496.093928,-1447071.784386,-1807678.736172,-2175798.556304,-2542261.843951,-3518248.083383,-2477506.87331,-2483325.658241,-2443079.107175,-2434382.84807,-32241.229086,-2541746.323317,-2523604.395819
129.0,0.50390625,-329844.156485,18361.868663,-1555262.452991,-9662.927349,-1447081.976781,-1807692.147218,-2175825.378397,-2542273.645672,-3518259.885104,-2477500.97245,-2483317.611613,-2443087.690245,-2434464.923676,-32332.424203,-2541753.833503,-2523609.760238
130.0,0.5078125,-329881.170974,18188.59794,-1555449.671203,-9779.335234,-1447099.142921,-1807710.386242,-2176034.590725,-2542288.666044,-3518274.369034,-2477506.87331,-2483318.684497,-2443100.028408,-2434640.340166,-32557.193346,-2541755.442829,-2523619.416192
131.0,0.51171875,-329873.660788,18444.480711,-1555648.691135,-9683.31214,-1447094.851386,-1807698.048079,-2176285.109077,-2542281.6923,-3518257.739336,-2477509.019078,-2483316.538729,-2443085.544477,-2434854.380471,-32506.231368,-2541745.250433,-2523607.078029
132.0,0.515625,-329850.057346,18561.961479,-1555795.139765,-9595.872116,-1447076.612362,-1807673.908195,-2176332.852403,-2542260.771067,-3518228.235034,-2477493.462264,-2483297.226822,-2443058.722384,-2434919.826379,-32281.998668,-2541736.667363,-2523582.401703
133.0,0.51953125,-329860.249741,18230.440406,-1555877.751813,-9704.769815,-1447054.081804,-1807654.596288,-2176298.520124,-2542238.776951,-3518211.605336,-2477459.129984,-2483262.894543,-2443041.019802,-2434881.202564,-32314.721622,-2541717.355456,-2523560.407586
134.0,0.5234375,-329905.8473,17988.505124,-1555969.483372,-9850.145561,-1447059.446223,-1807664.788683,-2176437.995009,-2542245.750695,-3518221.261289,-2477453.229124,-2483258.066566,-2443049.602872,-2434962.205286,-32542.172973,-2541714.673247,-2523565.772005
135.0,0.52734375,-329905.8473,18191.816591,-1556080.526838,-9776.116583,-1447070.17506,-1807673.371753,-2176659.009058,-2542251.115114,-3518221.261289,-2477466.64017,-2483268.795403,-2443053.894407,-2435117.236986,-32553.438253,-2541721.110549,-2523572.209307
136.0,0.53125,-329869.905695,18391.372966,-1556169.576188,-9660.781581,-1447053.00892,-1807650.841194,-2176706.215943,-2542233.948974,-3518192.82987,-2477455.911333,-2483254.311473,-2443029.754523,-2435138.694661,-32285.217319,-2541712.527479,-2523551.824516
137.0,0.53515625,-329862.395509,18117.787614,-1556194.252514,-9736.956327,-1447064.2742,-1807661.03359,-2176624.140337,-2542244.677811,-3518209.99601,-2477460.73931,-2483253.775031,-2443040.48336,-2435065.738567,-31994.465827,-2541715.209689,-2523559.871144
138.0,0.5390625,-329920.867672,17823.281029,-1556231.803445,-9905.935515,-1447094.851386,-1807699.120963,-2176700.315082,-2542277.937207,-3518251.302034,-2477480.587659,-2483271.477612,-2443074.81564,-2435119.919195,-32393.042134,-2541720.037665,-2523590.984773
139.0,0.54296875,-329928.9143,17965.438123,-1556304.223097,-9867.3117,-1447082.513223,-1807683.564148,-2176899.871457,-2542259.161742,-3518234.672336,-2477468.785938,-2483258.603008,-2443056.040174,-2435240.618615,-32589.379858,-2541695.897781,-2523573.818633
140.0,0.546875,-329898.337114,18192.353033,-1556379.8614,-9734.810559,-1447074.466595,-1807670.689544,-2176962.098713,-2542246.823579,-3518213.214661,-2477468.785938,-2483253.775031,-2443039.410477,-2435269.586476,-32361.392064,-2541693.752014,-2523560.944028
141.0,0.55078125,-329908.529509,17653.228957,-1556382.007168,-9768.606397,-1447111.481084,-1807707.704032,-2176859.638317,-2542274.182114,-3518238.427429,-2477484.342752,-2483270.404729,-2443066.769012,-2435163.370986,-32290.581738,-2541725.938526,-2523586.693238
142.0,0.5546875,-329980.412719,17465.474303,-1556385.225819,-9954.215283,-1447138.303177,-1807737.744777,-2176872.512921,-2542296.712672,-3518265.249522,-2477490.243613,-2483277.378473,-2443090.372454,-2435165.516754,-32496.038973,-2541741.49534,-2523607.078029
143.0,0.55859375,-329997.578859,17849.56668,-1556432.969145,-9966.553446,-1447141.521828,-1807744.182079,-2177042.564993,-2542297.249114,-3518264.176639,-2477489.170729,-2483277.378473,-2443090.908896,-2435305.528081,-32628.003672,-2541738.813131,-2523605.468703
144.0,0.5625,-329975.048301,18166.067382,-1556497.878611,-9830.833653,-1447125.428572,-1807718.969312,-2177132.687227,-2542276.864323,-3518234.135894,-2477480.051217,-2483266.113194,-2443065.159686,-2435356.490058,-32422.546437,-2541730.230061,-2523582.401703
145.0,0.56640625,-328506.270469,17131.807462,-1549828.296879,-9309.948601,-1438287.548815,-1798943.853252,-2170907.279361,-2533532.32545,-3509551.824278,-2468657.728274,-2474470.612344,-2434259.466441,-2427712.729897,-30951.086396,-2532986.764072,-2514839.472156
146.0,0.5703125,-327748.814553,16213.418986,-1545168.762823,-9220.899251,-1434119.395509,-1794904.982436,-2166813.691475,-2529429.08161,-3505597.711277,-2464462.752874,-2470426.377109,-2430232.397346,-2421399.882007,-30100.826037,-2528991.345047,-2510844.053131
147.0,0.57421875,-330124.17914,17689.707004,-1554023.808721,-9983.719585,-1446996.682524,-1807731.307475,-2175399.979997,-2542133.097903,-3518230.917243,-2477279.958401,-2483230.171589,-2443061.941035,-2431380.919383,-32526.616159,-2541721.646991,-2523586.693238
148.0,0.578125,-330097.357046,18020.691636,-1554187.42349,-9823.323467,-1447131.865875,-1807820.893266,-2175691.804372,-2542267.20837,-3518312.992849,-2477437.135868,-2483333.704869,-2443145.089524,-2432392.648744,-32449.36853,-2541812.842108,-2523685.934983
149.0,0.58203125,-330035.12979,17978.312728,-1554364.985748,-9817.422607,-1447112.017526,-1807774.222824,-2175709.506954,-2542251.651555,-3518267.39529,-2477423.188379,-2483288.10731,-2443101.101291,-2432997.75517,-32296.482598,-2541774.218294,-2523640.873866
150.0,0.5859375,-330036.202673,17610.850049,-1554582.244704,-10010.541679,-1447115.772619,-1807767.24908,-2175763.151141,-2542259.698184,-3518265.249522,-2477417.287519,-2483265.04031,-2443093.591105,-2433468.751129,-32438.639693,-2541757.588596,-2523628.535703
151.0,0.58984375,-330060.342557,17514.290513,-1554844.564777,-10091.007959,-1447111.481084,-1807760.275335,-2176009.377958,-2542256.479532,-3518257.202894,-2477412.459542,-2483246.264845,-2443081.252942,-2433911.315669,-32651.070672,-2541736.130921,-2523610.833122
152.0,0.59375,-330045.858627,17815.770843,-1555125.660315,-9974.600074,-1447117.381944,-1807752.228707,-2176249.167472,-2542257.015974,-3518238.427429,-2477425.870589,-2483248.410612,-2443067.305454,-2434285.752092,-32545.928066,-2541729.693619,-2523596.885633
153.0,0.59765625,-330012.599231,17871.024355,-1555344.528597,-9886.623607,-1447124.89213,-1807751.155824,-2176271.69803,-2542265.599044,-3518232.526568,-2477435.526542,-2483252.702147,-2443064.086802,-2434449.903303,-32345.298808,-2541742.568224,-2523595.276307
154.0,0.6015625,-330009.38058,17526.092234,-1555509.21625,-10034.145121,-1447136.15741,-1807762.957545,-2176262.578519,-2542279.546533,-3518247.546941,-2477434.453658,-2483248.947054,-2443076.961407,-2434537.343328,-32428.983739,-2541751.151294,-2523604.395819
155.0,0.60546875,-330051.759488,17356.040163,-1555681.950531,-10150.016564,-1447151.714224,-1807780.660126,-2176439.067893,-2542292.421137,-3518262.567313,-2477440.890961,-2483247.87417,-2443090.908896,-2434720.270004,-32656.435091,-2541752.224177,-2523614.051773
156.0,0.609375,-330065.170534,17615.141584,-1555859.512789,-10065.258749,-1447130.792991,-1807753.838033,-2176660.081942,-2542265.599044,-3518227.16215,-2477423.188379,-2483226.416496,-2443058.185942,-2434946.11203,-32614.592625,-2541723.256317,-2523581.865261
157.0,0.61328125,-330024.937394,17759.980888,-1555990.941047,-9940.804236,-1447107.725991,-1807724.33373,-2176689.049803,-2542239.849834,-3518190.684103,-2477402.267146,-2483203.349495,-2443024.926546,-2435000.829101,-32384.995506,-2541708.772386,-2523551.288074
158.0,0.6171875,-330009.917022,17449.917489,-1556056.386954,-10050.774819,-1447099.679363,-1807716.287102,-2176625.213221,-2542232.87609,-3518187.465452,-2477380.809472,-2483182.428263,-2443019.562128,-2434949.330681,-32413.426925,-2541706.090177,-2523544.31433
159.0,0.62109375,-330050.686604,17208.518649,-1556138.46256,-10200.4421,-1447124.89213,-1807747.400731,-2176726.600734,-2542257.552416,-3518216.969754,-2477394.75696,-2483197.985077,-2443047.993546,-2435023.359659,-32644.63337,-2541722.719875,-2523567.917772
160.0,0.625,-330065.170534,17409.684349,-1556250.57891,-10143.04282,-1447134.548084,-1807753.838033,-2176920.792689,-2542262.916835,-3518215.896871,-2477407.631565,-2483206.031705,-2443052.285081,-2435204.140568,-32662.335952,-2541724.3292,-2523569.527098
161.0,0.62890625,-330034.593348,17627.479747,-1556341.237586,-10008.395911,-1447126.501456,-1807738.817661,-2176958.880062,-2542252.724439,-3518198.730731,-2477407.631565,-2483200.130844,-2443035.118942,-2435252.420336,-32281.462226,-2541721.646991,-2523556.116051
162.0,0.6328125,-330030.838255,17369.451209,-1556361.085935,-10074.914703,-1447128.110782,-1807742.036312,-2176860.174758,-2542254.870207,-3518210.532452,-2477407.095123,-2483191.547774,-2443037.801151,-2435155.8608,-32026.652339,-2541705.017293,-2523556.116051
163.0,0.63671875,-330085.018883,17068.507322,-1556400.246191,-10233.165054,-1447109.335316,-1807732.380358,-2176911.136736,-2542236.094741,-3518200.876498,-2477376.517937,-2483160.434146,-2443022.780779,-2435162.834545,-32550.219601,-2541663.711269,-2523538.41347
164.0,0.640625,-330099.502814,17195.107602,-1556472.129401,-10196.150565,-1447103.970898,-1807726.479498,-2177087.62611,-2542226.438788,-3518188.001894,-2477369.544192,-2483153.460402,-2443013.124825,-2435298.554337,-32678.965649,-2541651.373106,-2523529.293958
165.0,0.64453125,-330076.972255,17464.40142,-1556536.502425,-10062.57654,-1447132.938758,-1807748.473614,-2177140.733855,-2542255.94309,-3518205.704475,-2477410.313774,-2483193.1571,-2443035.118942,-2435355.953617,-32444.004112,-2541690.533363,-2523555.579609
166.0,0.6484375,-330067.852744,17264.845045,-1556530.065123,-10092.080843,-1447159.22441,-1807773.686382,-2177033.981923,-2542281.6923,-3518231.990127,-2477426.40703,-2483209.786798,-2443059.795268,-2435279.24243,-32353.881878,-2541724.865642,-2523580.255935
167.0,0.65234375,-330119.887605,16919.376483,-1556534.8931,-10271.252426,-1447166.198154,-1807787.097429,-2177041.492109,-2542288.129602,-3518244.32829,-2477414.068867,-2483200.667286,-2443069.987663,-2435273.878011,-32550.756043,-2541727.547852,-2523586.156796
168.0,0.65625,-330148.855466,16921.52225,-1556577.808449,-10287.345682,-1447179.609201,-1807801.044917,-2177205.643321,-2542298.321998,-3518253.447801,-2477423.188379,-2483211.932565,-2443079.643617,-2435384.921477,-32678.965649,-2541731.839386,-2523596.885633
169.0,0.66015625,-330168.703815,16879.143343,-1556627.697543,-10164.500495,-1447193.556689,-1807809.091545,-2177293.619787,-2542298.321998,-3518238.427429,-2477432.844333,-2483218.369868,-2443072.669872,-2435450.367385,-32468.680438,-2541738.813131,-2523593.666982
170.0,0.6640625,-329963.783021,16815.306761,-1555597.729158,-10037.363772,-1445778.423044,-1806398.785877,-2176259.896309,-2540891.771423,-3516835.095505,-2476010.736944,-2481797.335362,-2441653.244692,-2434209.577347,-32145.205992,-2540334.944765,-2522183.897756
171.0,0.66796875,-327517.071666,15232.803253,-1544058.328159,-9342.671554,-1431276.790056,-1792033.409123,-2165682.872019,-2526562.336273,-3502656.40052,-2461521.442118,-2467407.818724,-2427258.363635,-2420825.889209,-29879.275546,-2526031.258825,-2507894.695746
172.0,0.671875,-329552.332109,16363.622709,-1551015.979173,-10041.118865,-1442601.077867,-1803388.27412,-2172538.062637,-2537741.248338,-3513868.035539,-2472775.456044,-2478755.173535,-2438638.4414,-2427702.001059,-31714.979615,-2537338.380496,-2519190.552138
173.0,0.67578125,-330387.035654,17205.299998,-1554279.155049,-10139.824169,-1447221.451667,-1807945.884221,-2175807.675816,-2542297.785556,-3518344.642919,-2477396.902728,-2483318.148055,-2443190.150641,-2432070.783624,-32451.514298,-2541863.267644,-2523727.777449
174.0,0.6796875,-330328.563491,17169.358393,-1554383.224771,-10126.413122,-1447194.629573,-1807885.802732,-2175824.841955,-2542277.937207,-3518285.634313,-2477381.882355,-2483261.821659,-2443128.459827,-2432756.356329,-32282.53511,-2541812.305666,-2523672.523936
175.0,0.68359375,-330331.2457,16795.458412,-1554571.515867,-10317.386427,-1447189.801596,-1807871.318802,-2175879.022584,-2542280.082974,-3518273.29615,-2477371.68996,-2483228.025821,-2443111.293687,-2433308.891452,-32411.281158,-2541788.165782,-2523648.920494
176.0,0.6875,-330362.89577,16674.758992,-1554825.25287,-10405.362893,-1447190.87448,-1807861.662848,-2176124.176517,-2542281.155858,-3518263.640197,-2477366.861983,-2483209.250356,-2443098.419082,-2433830.849389,-32616.201951,-2541764.025898,-2523628.535703
177.0,0.69140625,-330352.703375,16955.85453,-1555114.931478,-10289.49145,-1447197.311783,-1807853.079778,-2176374.694869,-2542282.228742,-3518248.083383,-2477384.564565,-2483213.005449,-2443086.080919,-2434262.685092,-32508.913578,-2541760.807247,-2523616.733982
178.0,0.6953125,-330316.225328,17019.691112,-1555347.210806,-10203.660751,-1447198.921108,-1807844.496708,-2176416.537335,-2542284.910951,-3518235.208778,-2477391.001867,-2483211.396123,-2443078.034291,-2434457.41349,-32296.482598,-2541766.171666,-2523608.687354
179.0,0.69921875,-330323.199072,16671.54034,-1555518.872204,-10344.20852,-1447177.999875,-1807826.257685,-2176412.2458,-2542265.062602,-3518215.896871,-2477356.669588,-2483174.918076,-2443056.040174,-2434556.655235,-32369.438692,-2541741.49534,-2523583.474586
180.0,0.703125,-330376.306817,16477.348385,-1555693.21581,-10469.199475,-1447194.093131,-1807843.960267,-2176583.370755,-2542277.937207,-3518233.06301,-2477363.10689,-2483177.063844,-2443068.378337,-2434798.054075,-32594.207835,-2541744.177549,-2523592.594098
181.0,0.70703125,-330384.889887,16719.820108,-1555873.99672,-10385.514544,-1447203.212643,-1807847.71536,-2176813.504316,-2542284.910951,-3518231.453685,-2477380.809472,-2483188.329123,-2443069.451221,-2435021.213892,-32457.415158,-2541747.932642,-2523593.13054
182.0,0.7109375,-330358.604235,16872.70604,-1556013.471605,-10280.90838,-1447198.384666,-1807833.767871,-2176860.174758,-2542279.546533,-3518222.334173,-2477391.001867,-2483186.183356,-2443056.040174,-2435056.082613,-31930.092803,-2541729.157177,-2523582.401703
183.0,0.71484375,-330356.458468,16566.934176,-1556089.64635,-10362.983985,-1447162.443061,-1807803.190685,-2176804.384804,-2542245.750695,-3518195.51208,-2477347.550076,-2483138.976471,-2443023.853662,-2435028.187636,-32240.692644,-2541676.049432,-2523549.678749
184.0,0.71875,-330410.102655,16312.12429,-1556172.258398,-10513.187708,-1447161.370177,-1807806.409336,-2176912.746061,-2542244.677811,-3518197.657847,-2477333.066146,-2483124.492541,-2443024.390104,-2435114.018335,-32568.458625,-2541663.711269,-2523546.460098
185.0,0.72265625,-330424.586585,16498.806059,-1556281.692538,-10437.549405,-1447167.80748,-1807808.018662,-2177124.640599,-2542246.823579,-3518194.439196,-2477340.576332,-2483129.85696,-2443020.635011,-2435245.983034,-32594.744276,-2541661.02906,-2523544.850772
186.0,0.7265625,-330406.347562,16727.866736,-1556371.814772,-10312.022008,-1447168.343922,-1807802.117801,-2177179.357669,-2542245.214253,-3518182.101033,-2477350.232285,-2483133.612053,-2443013.124825,-2435280.315313,-32353.345436,-2541670.148572,-2523538.949911
187.0,0.73046875,-330416.539957,16481.639919,-1556395.418214,-10381.223009,-1447172.635457,-1807809.091545,-2177091.917645,-2542248.432904,-3518186.92901,-2477343.258541,-2483126.638308,-2443017.41636,-2435217.015173,-32317.940273,-2541679.804525,-2523539.486353
188.0,0.734375,-330476.085004,16173.722288,-1556431.896261,-10558.248825,-1447173.171899,-1807816.601731,-2177148.244041,-2542246.287137,-3518192.82987,-2477327.165285,-2483115.909471,-2443019.025686,-2435256.175429,-32541.10009,-2541670.685014,-2523538.41347
189.0,0.73828125,-330499.688446,16294.421708,-1556497.342169,-10535.181825,-1447183.900736,-1807825.721243,-2177332.780043,-2542252.187997,-3518196.584963,-2477337.35768,-2483123.956099,-2443025.99943,-2435385.994361,-32631.222323,-2541675.51299,-2523545.387214
190.0,0.7421875,-330481.449423,16577.126572,-1556564.397402,-10394.634055,-1447180.145643,-1807813.919522,-2177399.835277,-2542248.432904,-3518179.955266,-2477343.258541,-2483125.565425,-2443012.588383,-2435433.201245,-32402.161646,-2541678.1952,-2523536.804144
191.0,0.74609375,-330458.918865,16402.246523,-1556568.688937,-10398.389149,-1447175.854108,-1807812.310196,-2177294.692671,-2542246.823579,-3518176.200172,-2477332.529704,-2483118.055238,-2443011.5155,-2435335.568826,-32317.940273,-2541686.241828,-2523534.658377
192.0,0.75,-330502.370656,16063.215263,-1556570.298263,-10584.534476,-1447158.687968,-1807801.581359,-2177299.520647,-2542229.120997,-3518166.007777,-2477298.733866,-2483088.550936,-2442998.640895,-2435322.694221,-32520.715299,-2541662.638386,-2523515.882911
193.0,0.75390625,-330532.947842,16108.812822,-1556605.166984,-10593.117546,-1447150.104898,-1807792.998289,-2177461.526091,-2542215.70995,-3518151.523847,-2477286.932145,-2483075.139889,-2442985.76629,-2435417.644431,-32665.018161,-2541641.180711,-2523501.398981
194.0,0.7578125,-330521.146121,16418.339779,-1556664.17559,-10437.549405,-1447137.230293,-1807772.077056,-2177547.893232,-2542200.153136,-3518126.847521,-2477279.958401,-2483067.093261,-2442965.381499,-2435470.215734,-32467.607554,-2541632.597641,-2523482.623515
195.0,0.76171875,-330517.391028,16086.818705,-1556658.274729,-10440.231614,-1447161.370177,-1807797.826266,-2177442.750626,-2542216.246392,-3518139.185684,-2477291.760122,-2483079.431424,-2442977.719662,-2435375.801966,-32334.569971,-2541658.346851,-2523500.326097
196.0,0.765625,-329442.361527,14962.972994,-1551210.70757,-10163.427611,-1440004.699231,-1800695.87239,-2172398.051309,-2535127.167121,-3511101.06839,-2470126.506105,-2475939.926617,-2435842.50639,-2429223.350194,-31399.015355,-2534559.075184,-2516412.856151
197.0,0.76953125,-328239.122419,14531.673733,-1544537.370746,-9736.956327,-1432943.514936,-1793768.26212,-2166543.861216,-2528151.277083,-3504274.845633,-2463052.983648,-2469008.024813,-2428911.677469,-2420789.411162,-30138.376968,-2527677.598915,-2509534.598533
198.0,0.7734375,-330712.655868,16368.987127,-1554021.662953,-10435.940079,-1446816.974499,-1807588.077496,-2175699.314558,-2541842.882853,-3517905.833472,-2476882.991419,-2482835.886816,-2442748.122543,-2431287.042056,-32363.537832,-2541434.11415,-2523280.384932
199.0,0.77734375,-330731.967775,16425.313523,-1554324.752608,-10443.986707,-1447241.836457,-1807968.41478,-2175991.675376,-2542269.354137,-3518278.124127,-2477321.800866,-2483220.515635,-2443126.314059,-2432385.138558,-32318.476715,-2541819.279411,-2523670.378169
200.0,0.78125,-330728.212682,16069.652566,-1554477.63854,-10598.481965,-1447230.571178,-1807938.910477,-2176031.372074,-2542265.599044,-3518252.374918,-2477306.244052,-2483175.454518,-2443094.663989,-2433028.332356,-32451.514298,-2541776.364061,-2523635.509448
201.0,0.78515625,-330755.034775,15951.098913,-1554732.448427,-10686.994873,-1447238.081364,-1807936.228268,-2176264.724286,-2542274.182114,-3518247.010499,-2477311.072029,-2483161.50703,-2443087.690245,-2433636.120991,-32675.210556,-2541757.588596,-2523622.098401
202.0,0.7890625,-330740.550845,16243.459731,-1555030.710105,-10566.295453,-1447232.716946,-1807915.843477,-2176512.023987,-2542264.52616,-3518217.506196,-2477316.436448,-2483149.168867,-2443063.550361,-2434115.163578,-32587.770532,-2541738.276689,-2523595.276307
203.0,0.79296875,-330703.536356,16340.555708,-1555283.910666,-10476.173219,-1447233.789829,-1807904.041756,-2176557.621546,-2542266.671928,-3518203.022266,-2477322.87375,-2483147.559541,-2443050.675756,-2434351.734442,-32381.776855,-2541739.886014,-2523581.865261
204.0,0.796875,-330707.827891,16007.961751,-1555476.493296,-10608.137918,-1447219.305899,-1807889.021383,-2176551.184243,-2542253.797323,-3518189.074777,-2477299.80675,-2483117.518797,-2443035.118942,-2434476.725397,-32461.170252,-2541723.792758,-2523564.162679
205.0,0.80078125,-330757.716984,15813.233353,-1555665.857275,-10737.420408,-1447189.265155,-1807860.589964,-2176722.309199,-2542223.220137,-3518162.252684,-2477261.719377,-2483071.384796,-2443002.395988,-2434689.156376,-32700.959766,-2541676.049432,-2523525.538865
206.0,0.8046875,-330762.008519,16059.996612,-1555856.294138,-10655.881245,-1447199.45755,-1807863.272174,-2176952.44276,-2542226.97523,-3518159.570475,-2477278.885517,-2483082.113633,-2443004.005313,-2434908.024658,-32681.647859,-2541678.1952,-2523525.538865
207.0,0.80859375,-330735.722868,16236.485986,-1556010.252954,-10534.108941,-1447208.04062,-1807863.808616,-2177004.477621,-2542234.485416,-3518155.815382,-2477293.369447,-2483094.451796,-2443000.25022,-2434977.7621,-32369.975134,-2541691.606246,-2523527.14819
208.0,0.8125,-330747.524589,15943.588727,-1556098.765862,-10624.767616,-1447231.10762,-1807889.557825,-2176946.005457,-2542258.6253,-3518187.465452,-2477310.535587,-2483104.10775,-2443025.462988,-2434925.727239,-32153.789062,-2541696.970665,-2523548.605865
209.0,0.81640625,-330815.652706,15679.659328,-1556196.934723,-10786.77306,-1447238.081364,-1807900.286663,-2177048.465854,-2542262.916835,-3518196.584963,-2477304.098285,-2483094.988238,-2443032.436732,-2435013.703706,-32667.163928,-2541676.049432,-2523550.751633
210.0,0.8203125,-330828.527311,15861.513121,-1556315.488376,-10735.811083,-1447232.716946,-1807891.167151,-2177254.995973,-2542254.333765,-3518182.637475,-2477300.879634,-2483089.087378,-2443016.879918,-2435201.458359,-32777.670953,-2541659.956176,-2523537.877028
211.0,0.82421875,-330803.314543,16103.448403,-1556417.948773,-10608.67436,-1447237.544923,-1807889.021383,-2177312.395252,-2542257.552416,-3518176.736614,-2477319.118657,-2483100.352657,-2443014.734151,-2435239.00929,-32550.756043,-2541674.976549,-2523541.632121
212.0,0.828125,-330785.07552,15868.486866,-1556451.74461,-10651.58971,-1447240.763574,-1807895.995128,-2177222.80946,-2542262.916835,-3518184.2468,-2477313.754238,-2483097.670448,-2443020.098569,-2435166.053196,-32519.642415,-2541687.851153,-2523546.460098
213.0,0.83203125,-330832.818846,15557.887025,-1556490.904867,-10829.151968,-1447246.127992,-1807906.723965,-2177265.72481,-2542268.281253,-3518195.51208,-2477303.025401,-2483089.087378,-2443029.754523,-2435236.32708,-32749.239534,-2541683.559618,-2523550.215191
214.0,0.8359375,-330847.302776,15670.003375,-1556560.642309,-10813.058712,-1447253.638179,-1807913.697709,-2177449.187928,-2542275.254998,-3518197.121405,-2477312.681355,-2483095.52468,-2443032.973174,-2435354.344291,-32853.845698,-2541685.168944,-2523553.433842
215.0,0.83984375,-330827.990869,15966.655727,-1556636.280613,-10666.610082,-1447243.982225,-1807899.213779,-2177523.216906,-2542263.989718,-3518174.054405,-2477312.144913,-2483092.306029,-2443014.734151,-2435405.84271,-32633.904533,-2541682.486735,-2523537.340586
216.0,0.84375,-330817.262032,15812.16047,-1556645.400124,-10673.583826,-1447240.227132,-1807897.068011,-2177421.292951,-2542258.088858,-3518167.617103,-2477301.952517,-2483083.722959,-2443010.442616,-2435303.382314,-32548.073834,-2541688.924037,-2523534.658377
217.0,0.84765625,-330855.349404,15474.202093,-1556650.764543,-10853.291852,-1447230.571178,-1807894.922244,-2177412.709881,-2542250.578672,-3518164.934893,-2477276.73975,-2483061.192401,-2443005.614639,-2435298.017895,-32749.239534,-2541673.367223,-2523523.929539
218.0,0.8515625,-330874.661311,15510.68014,-1556687.779032,-10867.23934,-1447226.279643,-1807889.021383,-2177569.887348,-2542241.995602,-3518155.815382,-2477267.620238,-2483050.463563,-2442994.885802,-2435385.457919,-32902.125466,-2541656.737525,-2523512.127818
219.0,0.85546875,-330849.984986,15835.22747,-1556746.787637,-10721.327152,-1447219.305899,-1807876.68322,-2177667.519768,-2542232.87609,-3518137.039916,-2477270.302447,-2483051.000005,-2442978.792546,-2435451.976711,-32710.61572,-2541654.591758,-2523502.471865
220.0,0.859375,-330821.017125,15638.889747,-1556744.64187,-10688.067757,-1447223.597434,-1807877.756104,-2177567.741581,-2542230.730323,-3518132.211939,-2477264.401587,-2483046.70847,-2442977.18322,-2435373.119756,-32568.458625,-2541664.784153,-2523500.326097
221.0,0.86328125,-330884.853707,14994.086622,-1556707.090939,-10866.166456,-1447236.472039,-1807899.213779,-2177508.196534,-2542234.485416,-3518142.404335,-2477251.526982,-2483034.370307,-2442983.620522,-2435322.157779,-32731.536952,-2541664.784153,-2523504.08119
222.0,0.8671875,-329030.374173,14244.677334,-1548086.470137,-10206.879402,-1436020.545485,-1796769.654366,-2169671.853742,-2531139.794724,-3507131.935016,-2466054.375893,-2471879.598126,-2431817.583062,-2425620.606616,-31087.879072,-2530556.145973,-2512415.827801
223.0,0.87109375,-329027.691964,14659.346898,-1546765.750261,-10034.145121,-1436322.562256,-1797168.230673,-2168781.360243,-2531447.175914,-3507549.82323,-2466332.789222,-2472304.996527,-2432231.716184,-2423008.671166,-30504.766763,-2530990.127443,-2512842.299085
224.0,0.875,-331058.12443,15836.300354,-1554346.210283,-10685.385547,-1447268.658551,-1808051.563269,-2176015.278818,-2542239.849834,-3518268.468174,-2477240.798144,-2483177.063844,-2443119.340315,-2431634.656386,-32468.680438,-2541794.066643,-2523655.357797
225.0,0.87890625,-331049.54136,15462.400372,-1554360.157771,-10882.796154,-1447286.361132,-1808038.152222,-2176024.934772,-2542267.20837,-3518262.567313,-2477262.792261,-2483148.632425,-2443103.247059,-2432395.867395,-32715.980138,-2541767.780992,-2523647.311169
226.0,0.8828125,-331086.019407,15303.61358,-1554567.224332,-10997.594714,-1447280.996714,-1808014.012338,-2176249.167472,-2542261.843951,-3518233.06301,-2477254.209191,-2483111.081494,-2443072.669872,-2433157.614846,-32960.59763,-2541720.037665,-2523611.369564
227.0,0.88671875,-331089.7745,15557.350583,-1554857.975824,-10922.492853,-1447293.334877,-1808009.184362,-2176511.487545,-2542275.254998,-3518219.651964,-2477279.421959,-2483113.763704,-2443060.868151,-2433755.747528,-32907.489885,-2541713.063921,-2523601.177168
228.0,0.890625,-331074.217686,15629.770235,-1555127.269641,-10823.787549,-1447314.25611,-1808016.694548,-2176584.443639,-2542297.785556,-3518226.625708,-2477309.462703,-2483131.466285,-2443066.769012,-2434082.977066,-32718.662348,-2541734.521596,-2523606.005145
229.0,0.89453125,-331098.35757,15264.989765,-1555343.992155,-10961.653109,-1447283.142481,-1807981.289385,-2176587.125848,-2542268.281253,-3518193.902754,-2477266.547354,-2483079.967866,-2443033.509616,-2434271.804604,-32809.857465,-2541695.897781,-2523563.626237
230.0,0.8984375,-331169.704338,15023.590925,-1555556.959576,-11114.539041,-1447248.810202,-1807949.639314,-2176768.443199,-2542233.412532,-3518157.961149,-2477219.876912,-2483029.54233,-2442995.958685,-2434529.2967,-33069.495329,-2541643.326478,-2523522.320214
231.0,0.90234375,-331200.281525,15219.392207,-1555777.973625,-11030.317668,-1447271.34076,-1807963.050361,-2177011.987807,-2542251.115114,-3518165.471335,-2477248.844772,-2483052.072889,-2443006.687523,-2434775.523517,-33078.078398,-2541656.737525,-2523533.049051
232.0,0.90625,-331203.500176,15365.840836,-1555959.290976,-10930.003039,-1447294.944202,-1807978.607175,-2177082.798133,-2542271.499905,-3518176.736614,-2477278.885517,-2483074.067005,-2443019.562128,-2434865.64575,-32871.011838,-2541685.168944,-2523549.142307
233.0,0.91015625,-331233.004479,15037.538414,-1556063.360699,-11061.967738,-1447298.162853,-1807982.362268,-2177045.247203,-2542273.645672,-3518180.491707,-2477266.547354,-2483062.801726,-2443021.171453,-2434886.030541,-32908.562769,-2541687.314711,-2523548.069423
234.0,0.9140625,-331310.788549,14708.699549,-1556037.075047,-11247.576624,-1447028.332594,-1807719.505753,-2177045.783644,-2542004.351855,-3517915.489425,-2476980.623839,-2482777.414653,-2442749.195427,-2434800.199842,-33156.935353,-2541405.682731,-2523277.702722
235.0,0.91796875,-328750.88796,13320.92444,-1544004.14753,-10248.185426,-1430576.196978,-1791336.034696,-2166100.760233,-2525723.341194,-3501716.017928,-2460539.21706,-2466394.480037,-2426332.464973,-2421005.060793,-30695.203626,-2525098.386419,-2507000.447154
236.0,0.921875,-327208.617593,12601.019454,-1535621.170476,-9496.63037,-1422787.06107,-1783141.348736,-2158646.900493,-2518029.691938,-3494263.767512,-2452739.352314,-2458849.425179,-2418774.53551,-2410184.491895,-28738.263695,-2517615.558817,-2499498.307645
237.0,0.92578125,-331344.584387,14664.174874,-1550317.531862,-10977.746365,-1445259.683759,-1805889.702545,-2172724.744406,-2540220.682647,-3516388.23943,-2475127.217189,-2481243.190914,-2441223.018315,-2426125.398412,-32503.549159,-2539910.619248,-2521783.175681
238.0,0.9296875,-331765.691252,14546.694105,-1551826.542834,-11314.095415,-1447379.702017,-1808245.218783,-2174323.34117,-2542325.144091,-3518399.359989,-2477250.454098,-2483265.04031,-2443252.91434,-2429229.787496,-33174.101493,-2541909.401644,-2523818.972566
239.0,0.93359375,-331765.154811,14595.510315,-1552226.192024,-11309.267439,-1447350.734156,-1808174.408457,-2174744.448035,-2542304.222858,-3518320.503035,-2477241.334586,-2483191.547774,-2443170.302292,-2430703.393305,-33318.940797,-2541817.133643,-2523735.824077
240.0,0.9375,-331741.014927,14856.757505,-1552765.852543,-11149.944204,-1447344.296854,-1808127.201572,-2175087.77083,-2542296.712672,-3518267.931732,-2477255.818517,-2483159.361262,-2443118.267431,-2431799.344039,-33126.358166,-2541773.681852,-2523680.570564
241.0,0.94140625,-331722.775903,14675.976595,-1553259.915502,-11218.072321,-1447328.74004,-1808087.504874,-2175247.630506,-2542283.838068,-3518233.06301,-2477242.40747,-2483117.518797,-2443079.107175,-2432500.473559,-33052.329189,-2541740.422456,-2523634.973006
242.0,0.9453125,-331774.274322,14288.129126,-1553719.10974,-11429.966859,-1447311.5739,-1808065.510758,-2175472.936091,-2542269.354137,-3518210.532452,-2477215.048935,-2483074.603447,-2443051.74864,-2433059.982426,-33272.270354,-2541702.335084,-2523596.349191
243.0,0.94921875,-331817.726114,14275.254521,-1554172.93956,-11463.226254,-1447353.416366,-1808097.160828,-2175838.253002,-2542306.368626,-3518236.281662,-2477256.8914,-2483101.425541,-2443078.034291,-2433563.164897,-33450.905496,-2541719.501224,-2523617.806866
244.0,0.953125,-331821.481207,14564.396687,-1554603.165937,-11294.247066,-1447327.667156,-1808053.172595,-2176139.196889,-2542276.327881,-3518188.538335,-2477245.089679,-2483073.530564,-2443034.046058,-2433974.079367,-33279.244099,-2541685.168944,-2523573.282191
245.0,0.95703125,-331813.97102,14477.493105,-1554923.421731,-11309.267439,-1447311.5739,-1808029.569153,-2176230.928449,-2542259.161742,-3518162.252684,-2477228.459981,-2483047.781354,-2443008.296848,-2434148.422974,-33146.206516,-2541668.539246,-2523546.460098
246.0,0.9609375,-331859.032137,14095.546495,-1555181.986711,-11516.870441,-1447306.209482,-1808026.350501,-2176340.362589,-2542254.333765,-3518157.961149,-2477207.002307,-2483020.959261,-2443001.323104,-2434275.023255,-33316.795029,-2541655.128199,-2523533.049051
247.0,0.96484375,-331530.193273,13811.768748,-1553731.984345,-11440.159254,-1444992.535709,-1805722.869125,-2175043.246155,-2539961.044784,-3515878.619656,-2474890.646325,-2480707.285489,-2440687.649332,-2432636.193351,-33181.075237,-2539344.673079,-2521232.249884
248.0,0.96875,-328882.316218,12631.596641,-1542389.457511,-10301.293171,-1430501.095116,-1791350.518626,-2164672.215542,-2525664.86903,-3501742.840021,-2460456.06857,-2466375.704572,-2426319.053926,-2419256.796748,-30509.59474,-2525089.803349,-2506984.353898
249.0,0.97265625,-332081.11907,14016.153099,-1553488.439737,-11554.957814,-1447379.702017,-1808190.501713,-2175272.306832,-2542302.077091,-3518292.608058,-2477225.24133,-2483157.215495,-2443147.771734,-2431377.700731,-33302.847541,-2541813.914992,-2523694.518053
250.0,0.9765625,-332107.941164,13842.345934,-1553731.447903,-11674.58435,-1447370.582506,-1808156.169433,-2175572.177836,-2542298.321998,-3518256.666452,-2477219.876912,-2483112.154378,-2443107.002152,-2432267.121347,-33551.220125,-2541759.197922,-2523654.821355
251.0,0.98046875,-332103.113187,14091.25496,-1554102.129233,-11545.838302,-1447335.177342,-1808094.478618,-2175915.500631,-2542258.088858,-3518189.074777,-2477198.419237,-2483061.192401,-2443038.874035,-2433030.478123,-33503.476799,-2541695.361339,-2523586.693238
252.0,0.984375,-332081.655512,14191.033148,-1554454.57154,-11463.226254,-1447353.416366,-1808093.405735,-2176066.777237,-2542277.400765,-3518186.92901,-2477228.996423,-2483067.093261,-2443037.264709,-2433495.573222,-33303.383983,-2541703.944409,-2523581.328819
253.0,0.98828125,-332095.066559,13846.101027,-1554742.10438,-11634.887652,-1447353.416366,-1808087.504874,-2176137.587564,-2542279.546533,-3518182.101033,-2477220.413353,-2483048.317796,-2443031.90029,-2433772.913667,-33381.168053,-2541694.824898,-2523572.209307
254.0,0.9921875,-332150.856513,13605.775071,-1555028.564337,-11785.627816,-1447333.031575,-1808064.974316,-2176373.621985,-2542257.552416,-3518158.497591,-2477189.299725,-2483011.839749,-2443005.078197,-2434092.63302,-33633.295731,-2541656.737525,-2523540.022795
255.0,0.99609375,-332165.340443,13811.232306,-1555317.170062,-11686.386071,-1447355.025691,-1808075.703153,-2176675.102314,-2542274.182114,-3518167.080661,-2477217.194702,-2483031.688098,-2443015.807034,-2434426.299861,-33643.488126,-2541669.075688,-2523549.142307
0.0,1.0,0.0,0.0,0.0,0.0,0.0,0.0,0.0,0.0,0.0,0.0,0.0,0.0,0.0,0.0,0.0,0.0
1.0,1.00390625,-330405.81112,-1181.781433,-1442001.872301,-13947.48854,-1351464.432653,-1682306.37101,-1998193.919443,-2491797.148204,-3523618.402912,-2494770.10903,-2500667.214473,-2438473.217305,-2444759.243102,-37730.63871,-2528003.219128,-2511112.810506
2.0,1.0078125,-332100.430977,-911.414732,-1450515.204729,-14961.90011,-1364084.764014,-1694883.25058,-2005757.213325,-2504298.38947,-3536099.79583,-2507380.784438,-2513279.499206,-2451104.813946,-2457662.279327,-39311.532892,-2540568.833419,-2523666.623076
3.0,1.01171875,-332109.550489,-1113.653316,-1450631.076173,-15130.879299,-1364397.509622,-1695162.736793,-2005922.43742,-2504618.108823,-3536381.42781,-2507696.212256,-2513547.183698,-2451382.154391,-2458625.192478,-39420.967033,-2540835.981469,-2523957.91101
4.0,1.015625,-332171.241304,-1245.618015,-1450731.927244,-15238.167672,-1364392.145204,-1695140.206234,-2006160.617609,-2504619.718149,-3536354.605717,-2507690.311395,-2513510.705651,-2451352.650088,-2458761.985154,-39689.724408,-2540787.701701,-2523924.651614
5.0,1.01953125,-332155.68449,-967.204686,-1450895.542013,-15172.721764,-1364415.212204,-1695143.961328,-2006408.453752,-2504645.467358,-3536359.433694,-2507730.544535,-2513528.944675,-2451357.478065,-2458755.547852,-39696.698153,-2540794.675445,-2523929.479591
6.0,1.0234375,-332048.932558,-829.339126,-1451010.340573,-15014.471413,-1364421.649506,-1695134.305374,-2006405.771542,-2504658.878405,-3536350.314182,-2507747.710675,-2513531.090442,-2451351.577205,-2458708.87741,-39452.617103,-2540804.86784,-2523921.969404
7.0,1.02734375,-332039.813046,-1106.14313,-1451125.675574,-15117.468252,-1364420.576623,-1695128.940955,-2006361.783309,-2504657.269079,-3536339.048903,-2507731.080977,-2513510.169209,-2451341.384809,-2458681.518874,-39423.649242,-2540796.284771,-2523905.876148
8.0,1.03125,-332135.299699,-1303.017295,-1451316.112437,-15249.969393,-1364416.821529,-1695127.868072,-2006560.2668,-2504652.977544,-3536335.29381,-2507717.66993,-2513490.857302,-2451332.801739,-2458698.148572,-39678.995571,-2540774.290654,-2523889.246451
9.0,1.03515625,-332156.220932,-1072.347292,-1451500.648439,-15203.298951,-1364400.191832,-1695106.410397,-2006813.467361,-2504635.274963,-3536307.935275,-2507705.331767,-2513473.691162,-2451305.443204,-2458669.717153,-39753.024549,-2540744.786351,-2523861.887915
10.0,1.0390625,-332061.270721,-856.16122,-1451599.890184,-15072.407135,-1364415.212204,-1695111.774816,-2006816.686012,-2504659.951289,-3536313.836135,-2507731.617419,-2513494.612395,-2451317.244925,-2458634.31199,-39510.016383,-2540775.89998,-2523876.371846
11.0,1.04296875,-332001.725674,-1081.466804,-1451668.554743,-15108.885182,-1364416.821529,-1695115.529909,-2006715.834941,-2504664.779265,-3536311.153926,-2507724.643674,-2513483.347116,-2451318.854251,-2458609.099222,-39416.675498,-2540783.410166,-2523876.371846
12.0,1.046875,-332075.754652,-1328.766504,-1451798.910117,-15242.459207,-1364411.457111,-1695117.139234,-2006841.89878,-2504654.58687,-3536307.935275,-2507704.795325,-2513463.498767,-2451310.271181,-2458629.484013,-39645.199733,-2540763.561817,-2523863.497241
13.0,1.05078125,-332136.372582,-1207.530642,-1451939.457886,-15210.272695,-1364436.669879,-1695139.669793,-2007085.97983,-2504669.0708,-3536317.591228,-2507723.570791,-2513480.664907,-2451320.463576,-2458653.623897,-39785.747503,-2540770.535561,-2523873.689636
14.0,1.0546875,-332091.311466,-1146.37627,-1452011.341096,-15078.307996,-1364438.279204,-1695132.159606,-2007117.093458,-2504667.997917,-3536299.888647,-2507725.180116,-2513477.982697,-2451305.443204,-2458610.172106,-39511.089267,-2540770.535561,-2523865.106567
15.0,1.05859375,-332031.229977,-1072.347292,-1452025.825027,-15085.28174,-1364438.815646,-1695130.550281,-2006977.618572,-2504672.289452,-3536310.081042,-2507730.008093,-2513473.691162,-2451308.125413,-2458649.332362,-39066.915401,-2540769.462677,-2523868.86166
16.0,1.0625,-332095.066559,-1288.533364,-1452105.754865,-15239.776998,-1364442.034297,-1695138.596909,-2007041.455155,-2504673.362335,-3536318.664112,-2507717.66993,-2513462.962325,-2451310.807623,-2458684.201084,-39497.141778,-2540739.421933,-2523866.17945
17.0,1.06640625,-332156.757373,-1201.09334,-1452217.334773,-15253.724486,-1364446.862274,-1695146.107095,-2007269.97939,-2504677.65387,-3536318.12767,-2507720.35214,-2513464.035209,-2451311.344065,-2458699.221456,-39810.423828,-2540728.693095,-2523864.033683
18.0,1.0703125,-332098.821652,-888.884173,-1452279.025588,-15125.51488,-1364439.352088,-1695133.23249,-2007333.815972,-2504673.898777,-3536300.425088,-2507725.716558,-2513464.571651,-2451298.46946,-2458667.034944,-39631.788687,-2540731.911746,-2523855.450613
19.0,1.07421875,-332021.037581,-979.542849,-1452268.833192,-15084.208856,-1364448.4716,-1695139.669793,-2007179.857156,-2504685.164056,-3536303.107298,-2507725.180116,-2513465.644534,-2451305.443204,-2458645.040827,-39438.669615,-2540749.077886,-2523863.497241
20.0,1.078125,-332080.046186,-1287.996922,-1452310.675658,-15223.683742,-1364441.497855,-1695138.596909,-2007177.174947,-2504672.289452,-3536295.06067,-2507697.821581,-2513438.285999,-2451295.250809,-2458648.259479,-39578.1445,-2540730.838863,-2523846.331101
21.0,1.08203125,-332154.611606,-1279.950294,-1452401.334334,-15267.671975,-1364456.518228,-1695158.445258,-2007382.09574,-2504685.164056,-3536308.471716,-2507706.404651,-2513450.08772,-2451306.516088,-2458677.763781,-39811.496712,-2540731.911746,-2523856.523497
22.0,1.0859375,-332115.987792,-968.814012,-1452460.879381,-15142.144578,-1364452.226693,-1695147.179979,-2007481.873927,-2504685.700498,-3536294.524228,-2507716.597046,-2513456.525023,-2451298.46946,-2458647.723037,-39687.578641,-2540733.521072,-2523853.841287
23.0,1.08984375,-332031.229977,-1074.493059,-1452432.984404,-15090.646159,-1364458.127553,-1695149.325746,-2007335.425298,-2504693.747126,-3536296.669995,-2507716.597046,-2513458.67079,-2451299.542344,-2458611.781432,-39463.345941,-2540755.515189,-2523860.27859
24.0,1.09375,-332069.317349,-1290.14269,-1452438.885264,-15209.199811,-1364488.70474,-1695189.558886,-2007282.317553,-2504724.860755,-3536328.320066,-2507730.008093,-2513474.227604,-2451330.655972,-2458643.967944,-39545.957988,-2540784.483049,-2523887.637125
25.0,1.09765625,-331810.215927,-1334.130923,-1450403.088379,-15034.856204,-1361532.910053,-1692255.758316,-2005610.764695,-2501786.768649,-3533400.420356,-2504760.80236,-2510512.532057,-2448372.179076,-2455713.922467,-39453.153545,-2537825.469711,-2520940.96195
26.0,1.1015625,-330211.619164,-1121.699944,-1440911.285986,-13803.72212,-1349320.27451,-1680165.967961,-1997259.974153,-2489679.275713,-3521377.148792,-2492532.073561,-2498386.263655,-2436219.08858,-2442820.005753,-37529.47301,-2525768.938752,-2508880.675898
27.0,1.10546875,-331886.927114,-954.866523,-1449345.225018,-14831.544737,-1362309.677876,-1693148.397583,-2004676.819405,-2502554.416961,-3534275.357041,-2505504.847229,-2511415.363719,-2449268.036994,-2455528.850022,-38968.746539,-2538749.222606,-2521843.25717
28.0,1.109375,-332168.559094,-1191.973828,-1450787.180756,-15175.403974,-1364495.142042,-1695290.946399,-2006022.215607,-2504723.251429,-3536404.494811,-2507689.774953,-2513549.329466,-2451415.413787,-2458533.997361,-39478.366313,-2540869.777306,-2523990.633963
29.0,1.11328125,-332224.349049,-1340.031784,-1450858.527524,-15286.44744,-1364479.585228,-1695253.93191,-2006255.56782,-2504709.840382,-3536363.725229,-2507669.390162,-2513496.758163,-2451367.134019,-2458772.713992,-39748.733014,-2540802.722073,-2523943.427079
30.0,1.1171875,-332211.474444,-1073.956618,-1451007.658363,-15203.298951,-1364480.12167,-1695237.302212,-2006514.132799,-2504717.350568,-3536342.803996,-2507689.238511,-2513488.711535,-2451347.28567,-2458765.740247,-39770.190688,-2540782.873724,-2523925.724498
31.0,1.12109375,-332106.331838,-922.143569,-1451120.311155,-15091.1826,-1364494.6056,-1695235.156445,-2006517.887892,-2504736.662476,-3536339.585345,-2507714.451279,-2513496.758163,-2451344.60346,-2458726.043549,-39526.109639,-2540798.96698,-2523926.260939
32.0,1.125,-332075.754652,-1188.755177,-1451236.71904,-15165.74802,-1364491.923391,-1695226.036933,-2006467.462357,-2504732.370941,-3536327.247182,-2507696.212256,-2513472.081837,-2451331.728856,-2458696.002805,-39484.267173,-2540788.238143,-2523906.41259
33.0,1.12890625,-332158.903141,-1402.795482,-1451423.40081,-15302.540696,-1364473.684367,-1695208.870793,-2006656.289894,-2504710.913266,-3536306.325949,-2507666.707953,-2513436.140232,-2451308.125413,-2458692.247712,-39740.149944,-2540750.15077,-2523874.226078
34.0,1.1328125,-332179.287932,-1186.072968,-1451609.009696,-15245.141416,-1364473.684367,-1695204.579259,-2006914.318432,-2504711.98615,-3536298.279321,-2507675.827465,-2513439.358883,-2451301.151669,-2458684.201084,-39826.517084,-2540742.640584,-2523866.17945
35.0,1.13671875,-332091.847908,-955.402965,-1451714.688744,-15120.686903,-1364483.876763,-1695205.1157,-2006934.166781,-2504727.006522,-3536295.06067,-2507694.60293,-2513451.160604,-2451304.37032,-2458646.113711,-39583.508919,-2540761.952491,-2523872.616753
36.0,1.140625,-332058.05207,-1170.516154,-1451783.889745,-15150.727648,-1364483.876763,-1695202.969933,-2006834.925036,-2504725.397196,-3536285.941158,-2507680.118999,-2513435.067348,-2451299.005902,-2458616.609408,-39477.293429,-2540764.6347,-2523865.643008
37.0,1.14453125,-332140.127676,-1429.617575,-1451910.490025,-15302.004254,-1364499.433577,-1695224.964049,-2006960.988875,-2504737.198918,-3536303.64374,-2507679.046116,-2513437.213115,-2451310.807623,-2458652.014572,-39700.453246,-2540765.707584,-2523871.007427
38.0,1.1484375,-332186.261676,-1303.553737,-1452052.110678,-15278.400812,-1364492.996275,-1695216.38098,-2007212.043668,-2504728.615848,-3536292.37846,-2507673.145255,-2513428.093604,-2451299.005902,-2458651.47813,-39850.656968,-2540747.468561,-2523857.059939
39.0,1.15234375,-332128.862396,-1221.478131,-1452124.53033,-15166.820904,-1364495.678484,-1695211.553003,-2007260.323436,-2504728.615848,-3536275.748763,-2507676.363906,-2513430.775813,-2451288.813506,-2458601.052594,-39635.54378,-2540752.832979,-2523852.231962
40.0,1.15625,-332069.853791,-1181.244991,-1452136.332051,-15145.363229,-1364505.870879,-1695220.136073,-2007127.285853,-2504744.709104,-3536287.014042,-2507685.483418,-2513435.60379,-2451300.078785,-2458600.516152,-39311.532892,-2540772.144887,-2523864.570125
41.0,1.16015625,-332125.107303,-1389.920877,-1452211.970355,-15293.957626,-1364514.453949,-1695235.156445,-2007176.638505,-2504751.682848,-3536302.570856,-2507682.264767,-2513427.02072,-2451307.588972,-2458660.597642,-39430.622987,-2540749.077886,-2523866.17945
42.0,1.1640625,-332186.798118,-1318.574109,-1452323.013821,-15305.222905,-1364512.308182,-1695236.229329,-2007404.626299,-2504747.391313,-3536298.279321,-2507676.900348,-2513421.656301,-2451300.078785,-2458680.445991,-39849.047643,-2540724.938002,-2523855.450613
43.0,1.16796875,-332126.716629,-1001.536966,-1452386.313961,-15173.794648,-1364503.725112,-1695221.208956,-2007482.410369,-2504742.563336,-3536283.258949,-2507683.874093,-2513422.192743,-2451285.058413,-2458647.186595,-39683.287106,-2540727.620212,-2523848.476869
44.0,1.171875,-332046.250349,-1074.493059,-1452377.19445,-15120.150461,-1364487.095414,-1695201.897049,-2007340.789716,-2504726.47008,-3536259.119065,-2507658.661325,-2513397.516417,-2451262.527855,-2458599.443269,-39479.975638,-2540721.719351,-2523828.62852
45.0,1.17578125,-332107.404722,-1379.728482,-1452410.453845,-15274.109277,-1364528.93788,-1695249.640375,-2007333.815972,-2504763.484569,-3536299.888647,-2507679.046116,-2513422.729185,-2451302.760995,-2458644.504386,-39605.503035,-2540755.515189,-2523864.570125
46.0,1.1796875,-332182.506583,-1384.556459,-1452500.039637,-15332.581441,-1364552.00488,-1695277.535352,-2007537.663882,-2504784.405802,-3536321.882763,-2507698.894465,-2513439.895325,-2451323.682228,-2458683.1282,-39841.001015,-2540767.31691,-2523884.418474
47.0,1.18359375,-332151.929397,-1169.979712,-1452563.339777,-15222.074416,-1364552.00488,-1695271.09805,-2007648.170906,-2504786.015127,-3536311.690368,-2507709.08686,-2513444.723301,-2451316.172041,-2458653.623897,-39727.275339,-2540769.462677,-2523882.809148
48.0,1.1875,-332073.072442,-1216.650154,-1452544.564312,-15120.686903,-1364547.713345,-1695261.978538,-2007514.060439,-2504784.942244,-3536299.352205,-2507699.967349,-2513436.140232,-2451307.05253,-2458608.026339,-39496.605336,-2540777.509305,-2523876.371846
49.0,1.19140625,-332087.556373,-1324.474969,-1452552.61094,-15253.724486,-1364528.93788,-1695248.567492,-2007452.369625,-2504766.166778,-3536283.258949,-2507664.025743,-2513403.95372,-2451290.422832,-2458596.761059,-39564.733453,-2540759.806724,-2523852.768404
50.0,1.1953125,-332166.949769,-1400.649715,-1452625.030592,-15327.217022,-1364557.369299,-1695282.899771,-2007629.931883,-2504791.915988,-3536310.081042,-2507682.801209,-2513425.947836,-2451317.244925,-2458650.405246,-39817.397573,-2540774.290654,-2523874.226078
51.0,1.19921875,-331558.08825,-1097.023618,-1449244.910389,-14833.690504,-1359832.925777,-1690585.814784,-2004748.702615,-2500111.997141,-3531638.745265,-2502970.69585,-2508722.425547,-2446595.483612,-2453890.020119,-39171.521565,-2536084.715853,-2519186.797045
52.0,1.203125,-330018.500092,-1041.233664,-1440764.837356,-13787.092422,-1349426.49,-1680308.661498,-1997108.697547,-2489811.776854,-3521456.005747,-2492552.458352,-2498426.496795,-2436284.534488,-2442651.026565,-37115.876331,-2525869.789823,-2508953.631992
53.0,1.20703125,-332025.865558,-1261.711271,-1450085.514794,-15085.818182,-1363367.004796,-1694229.327944,-2005357.027692,-2503606.915904,-3535249.535471,-2506445.229822,-2512357.355637,-2450252.407819,-2456543.798035,-39055.650122,-2539732.520548,-2522822.800019
54.0,1.2109375,-332264.045747,-1403.868366,-1450883.740292,-15303.61358,-1364538.593833,-1695365.511819,-2006317.795076,-2504772.067639,-3536368.016764,-2507622.183278,-2513477.446255,-2451379.472182,-2458499.12864,-39744.441479,-2540823.643306,-2523959.520335
55.0,1.21484375,-332244.73384,-1143.69406,-1450964.743014,-15188.81502,-1364545.031136,-1695341.908376,-2006577.43294,-2504781.723592,-3536343.340438,-2507646.859604,-2513462.962325,-2451352.650088,-2458757.157178,-39789.502596,-2540795.211887,-2523937.526219
56.0,1.21875,-332135.836141,-973.105547,-1451048.427945,-15085.818182,-1364544.494694,-1695317.768492,-2006592.989754,-2504788.160895,-3536321.346321,-2507660.27065,-2513452.233488,-2451332.265297,-2458736.235945,-39547.030872,-2540787.701701,-2523918.214311
57.0,1.22265625,-332110.086931,-1227.915433,-1451151.424784,-15197.934532,-1364548.786229,-1695311.867632,-2006549.537963,-2504790.306662,-3536311.153926,-2507651.687581,-2513432.385139,-2451319.927135,-2458707.804526,-39490.704476,-2540778.045747,-2523902.121055
58.0,1.2265625,-332194.844746,-1443.565064,-1451337.570111,-15324.534813,-1364552.00488,-1695314.549841,-2006746.94857,-2504788.160895,-3536307.398833,-2507643.640953,-2513414.146115,-2451315.099158,-2458714.241828,-39733.712641,-2540757.660956,-2523888.710009
59.0,1.23046875,-332216.302421,-1238.644271,-1451541.418021,-15292.884742,-1364553.077764,-1695308.648981,-2007023.752573,-2504791.379546,-3536298.279321,-2507650.614697,-2513412.000348,-2451307.05253,-2458702.976549,-39834.027271,-2540747.468561,-2523877.981171
60.0,1.234375,-332124.03442,-998.318314,-1451667.48186,-15154.482741,-1364561.660834,-1695308.648981,-2007068.277248,-2504808.545686,-3536296.669995,-2507670.999488,-2513428.093604,-2451308.125413,-2458669.180711,-39596.919965,-2540767.31691,-2523882.809148
61.0,1.23828125,-332069.317349,-1195.728921,-1451745.802372,-15166.284462,-1364542.885368,-1695289.873515,-2006978.691456,-2504788.697337,-3536272.530111,-2507641.495185,-2513395.37065,-2451283.985529,-2458623.583153,-39480.51208,-2540753.905863,-2523858.132822
62.0,1.2421875,-332151.929397,-1461.267646,-1451886.350141,-15314.878859,-1364538.593833,-1695289.873515,-2007100.46376,-2504778.504941,-3536269.847902,-2507618.964627,-2513374.985859,-2451275.40246,-2458634.31199,-39695.088827,-2540732.98463,-2523843.11245
63.0,1.24609375,-332203.964258,-1409.232784,-1452038.699632,-15309.51444,-1364562.197275,-1695314.549841,-2007350.982112,-2504801.571942,-3536285.941158,-2507644.713836,-2513398.589301,-2451294.177925,-2458661.134083,-39856.021387,-2540745.322793,-2523860.27859
64.0,1.25,-332153.538722,-1312.673248,-1452123.457447,-15182.377718,-1364607.794834,-1695349.955004,-2007406.235624,-2504846.633058,-3536313.836135,-2507694.60293,-2513444.18686,-2451325.827995,-2458653.623897,-39649.491268,-2540793.066119,-2523896.756637
65.0,1.25390625,-332075.21821,-1150.131363,-1452148.670214,-15144.290345,-1364602.966857,-1695344.054144,-2007275.88025,-2504848.778826,-3536308.471716,-2507685.483418,-2513434.530906,-2451322.609344,-2458616.609408,-39477.829871,-2540801.649189,-2523895.683753
66.0,1.2578125,-332125.107303,-1392.603087,-1452239.865332,-15298.249161,-1364595.456671,-1695344.054144,-2007317.722716,-2504838.049989,-3536300.425088,-2507660.27065,-2513410.391022,-2451314.562716,-2458627.874688,-39646.809059,-2540785.555933,-2523881.199823
67.0,1.26171875,-332189.480327,-1336.276691,-1452365.92917,-15319.170394,-1364588.482927,-1695338.689725,-2007547.319835,-2504826.248267,-3536287.550484,-2507647.932487,-2513396.979975,-2451301.151669,-2458641.822176,-39858.167155,-2540763.561817,-2523865.106567
68.0,1.265625,-332136.372582,-1014.41157,-1452439.421706,-15193.106555,-1364587.946485,-1695331.179539,-2007636.905627,-2504831.076244,-3536280.040298,-2507660.27065,-2513405.026603,-2451295.78725,-2458604.807687,-39691.870176,-2540772.144887,-2523865.643008
69.0,1.26953125,-332054.833419,-1071.274408,-1452439.421706,-15129.806415,-1364573.462555,-1695314.549841,-2007495.284974,-2504819.810965,-3536267.702135,-2507647.932487,-2513386.78758,-2451279.693994,-2458598.370385,-39256.27938,-2540763.561817,-2523852.768404
70.0,1.2734375,-332100.967419,-1381.337807,-1452481.800614,-15281.619463,-1364574.535438,-1695322.060027,-2007480.264602,-2504817.665198,-3536269.847902,-2507633.448557,-2513372.840091,-2451278.621111,-2458640.212851,-39400.0458,-2540734.057514,-2523846.867543
71.0,1.27734375,-332178.215048,-1399.576831,-1452575.67794,-15343.310278,-1364576.144764,-1695327.424446,-2007689.47693,-2504813.910105,-3536268.775018,-2507626.474813,-2513368.012115,-2451275.938901,-2458658.988316,-39849.584085,-2540713.136281,-2523841.503124
72.0,1.28125,-332143.346327,-1072.883734,-1452636.832313,-15218.319323,-1364580.972741,-1695325.278679,-2007808.567024,-2504821.956733,-3536266.629251,-2507644.177394,-2513380.886719,-2451277.548227,-2458643.967944,-39748.196572,-2540723.865118,-2523845.794659
73.0,1.28515625,-332054.296977,-1043.915873,-1452620.739057,-15143.217461,-1364575.07188,-1695315.086283,-2007674.992999,-2504820.883849,-3536252.681762,-2507638.276534,-2513372.840091,-2451267.892273,-2458602.66192,-39510.552825,-2540732.98463,-2523840.966683
74.0,1.2890625,-332078.973303,-1345.932644,-1452624.49415,-15257.479579,-1364567.025252,-1695315.086283,-2007607.401324,-2504813.910105,-3536246.780902,-2507611.454441,-2513350.309533,-2451258.23632,-2458596.761059,-39563.124128,-2540724.40156,-2523828.092078
75.0,1.29296875,-332159.439583,-1441.419296,-1452697.450244,-15336.872975,-1364576.681206,-1695329.033772,-2007774.234745,-2504816.592314,-3536253.754646,-2507607.699347,-2513349.236649,-2451264.673622,-2458624.656036,-39816.861131,-2540717.427816,-2523829.164961
76.0,1.296875,-332141.737001,-1308.381713,-1452635.222988,-15231.73037,-1364418.430855,-1695167.56477,-2007815.540769,-2504657.805521,-3536085.848342,-2507455.349857,-2513193.668508,-2451097.840202,-2458447.093779,-39770.72713,-2540556.495256,-2523667.159518
77.0,1.30078125,-330506.662191,-1189.291619,-1443575.256297,-14054.240472,-1352271.777662,-1683102.987182,-1999731.361834,-2492615.222051,-3524085.107337,-2495297.967827,-2501081.884036,-2438965.670939,-2446031.146768,-37894.789922,-2528521.958413,-2511625.648931
78.0,1.3046875,-331092.456709,-1256.346852,-1445657.723624,-14510.216059,-1356756.43167,-1687669.180354,-2001432.955436,-2497067.689546,-3528621.259763,-2499734.878508,-2505647.004324,-2443553.858227,-2449660.175998,-38141.016739,-2533100.489748,-2516185.4048
79.0,1.30859375,-332287.649189,-1368.999644,-1451065.057643,-15308.977998,-1364624.424532,-1695492.648541,-2006458.342845,-2504858.971221,-3536386.792229,-2507601.262045,-2513479.592023,-2451410.049368,-2458167.607566,-39706.354106,-2540867.631539,-2523989.56108
80.0,1.3125,-332261.899979,-1117.408409,-1451084.36955,-15199.543858,-1364614.768578,-1695448.123866,-2006706.71543,-2504854.143245,-3536343.340438,-2507611.990882,-2513444.18686,-2451359.623833,-2458674.54513,-39783.065293,-2540812.378027,-2523953.083033
81.0,1.31640625,-332137.981908,-929.117314,-1451143.378156,-15085.818182,-1364617.98723,-1695422.374656,-2006733.001081,-2504863.799198,-3536323.492089,-2507632.912115,-2513435.60379,-2451336.556832,-2458733.553735,-39538.984244,-2540805.404282,-2523936.453335
82.0,1.3203125,-332071.463117,-1169.979712,-1451226.526645,-15183.450602,-1364595.456671,-1695390.188144,-2006680.96622,-2504844.487291,-3536287.014042,-2507601.262045,-2513388.933347,-2451300.615227,-2458685.273967,-39466.564592,-2540773.21777,-2523895.683753
83.0,1.32421875,-332137.445466,-1396.894621,-1451405.698229,-15321.316161,-1364581.509183,-1695375.167772,-2006864.429339,-2504827.857593,-3536264.483483,-2507573.90351,-2513353.528184,-2451278.084669,-2458678.836665,-39704.208339,-2540736.739723,-2523860.27859
84.0,1.328125,-332165.876885,-1206.457759,-1451602.035952,-15291.275417,-1364601.893974,-1695388.042377,-2007139.624016,-2504849.315268,-3536273.602995,-2507599.652719,-2513370.694324,-2451288.277064,-2458683.664642,-39820.079782,-2540739.958374,-2523867.252334
85.0,1.33203125,-332088.092814,-952.720756,-1451733.464209,-15147.508996,-1364621.205881,-1695393.943238,-2007191.122435,-2504871.845826,-3536277.89453,-2507629.693464,-2513392.151999,-2451295.250809,-2458650.941688,-39588.336896,-2540765.171142,-2523881.199823
86.0,1.3359375,-332043.031698,-1143.69406,-1451821.440675,-15159.310718,-1364613.159253,-1695382.141516,-2007091.88069,-2504861.653431,-3536261.264832,-2507609.308673,-2513370.157882,-2451280.230436,-2458611.781432,-39460.663731,-2540760.879607,-2523861.887915
87.0,1.33984375,-332110.086931,-1417.279412,-1451958.233351,-15315.415301,-1364629.252509,-1695404.135633,-2007199.705505,-2504874.528035,-3536278.967414,-2507609.308673,-2513369.62144,-2451292.032157,-2458643.431502,-39667.730292,-2540763.025375,-2523868.325218
88.0,1.34375,-332157.293815,-1297.652876,-1452118.093028,-15315.415301,-1364623.351648,-1695397.161889,-2007455.051834,-2504869.163617,-3536268.238576,-2507606.626464,-2513360.501928,-2451280.230436,-2458645.577269,-39840.464573,-2540745.322793,-2523856.523497
89.0,1.34765625,-332087.556373,-1042.842989,-1452218.944099,-15163.065811,-1364632.47116,-1695397.698331,-2007526.935044,-2504881.50178,-3536264.483483,-2507624.865487,-2513377.131626,-2451282.376204,-2458607.489897,-39639.298873,-2540762.488933,-2523862.960799
90.0,1.3515625,-332023.183349,-1290.679132,-1452251.130611,-15150.727648,-1364631.398276,-1695393.406796,-2007393.361019,-2504878.81957,-3536253.754646,-2507611.990882,-2513363.72058,-2451275.938901,-2458562.42878,-39460.127289,-2540766.780468,-2523855.450613
91.0,1.35546875,-332083.80128,-1399.576831,-1452339.107077,-15298.249161,-1364616.377904,-1695382.141516,-2007425.011089,-2504861.653431,-3536240.343599,-2507580.877254,-2513332.070509,-2451259.845645,-2458569.402524,-39621.596291,-2540743.713468,-2523833.456496
92.0,1.359375,-332151.392955,-1333.594481,-1452460.879381,-15327.217022,-1364597.602439,-1695366.584702,-2007642.806487,-2504840.732198,-3536217.813041,-2507557.810254,-2513306.857742,-2451234.632878,-2458574.230501,-39837.782364,-2540708.844746,-2523805.561519
93.0,1.36328125,-332103.113187,-1010.656477,-1452533.299033,-15204.371834,-1364611.549927,-1695374.094888,-2007734.538047,-2504857.361896,-3536223.17746,-2507584.095905,-2513330.997626,-2451245.361715,-2458558.673687,-39647.881943,-2540730.302421,-2523820.581892
94.0,1.3671875,-332027.474883,-1048.74385,-1452524.179521,-15150.191206,-1364653.392393,-1695414.328028,-2007596.136045,-2504900.277245,-3536267.702135,-2507630.766348,-2513367.475673,-2451285.058413,-2458622.510269,-39111.440076,-2540769.462677,-2523862.960799
95.0,1.37109375,-332071.463117,-1362.0259,-1452568.704196,-15281.619463,-1364662.511905,-1695430.421284,-2007572.532603,-2504909.396757,-3536280.576739,-2507623.792603,-2513361.03837,-2451295.250809,-2458660.0612,-39378.588126,-2540746.932119,-2523869.398101
96.0,1.375,-332149.783629,-1403.331924,-1452672.237476,-15339.555185,-1364622.815206,-1695395.552563,-2007767.261001,-2504864.872082,-3536238.734274,-2507574.439952,-2513312.758602,-2451250.726134,-2458638.603525,-39825.980643,-2540687.387072,-2523822.727659
97.0,1.37890625,-332119.742885,-1084.149013,-1452741.974919,-15230.657486,-1364634.080486,-1695400.916982,-2007889.569746,-2504880.965338,-3536244.098692,-2507601.262045,-2513334.216277,-2451258.772762,-2458635.921316,-39742.832153,-2540701.33456,-2523833.456496
98.0,1.3828125,-331526.43818,-1030.504826,-1450209.432865,-14843.8829,-1361009.342791,-1691800.319171,-2005595.744323,-2501314.163365,-3532697.68151,-2504001.200676,-2509737.373559,-2447650.664765,-2455048.734552,-39003.615261,-2537137.214796,-2520259.680779
99.0,1.38671875,-321051.874286,-1053.571827,-1411619.950726,-9706.37914,-1308818.377116,-1640619.473531,-1972907.659162,-2452200.228238,-3486524.520698,-2454541.260545,-2460603.053642,-2398322.689333,-2406209.457661,-28238.836317,-2488329.587976,-2471425.231865
100.0,1.390625,-311067.618259,-895.321476,-1382580.743144,-5291.462575,-1271173.032662,-1603740.704506,-1950798.207617,-2420348.992389,-3461485.560117,-2423008.134724,-2430061.27239,-2367437.048845,-2374381.825254,-17250.361115,-2458175.654194,-2441000.931382
101.0,1.39453125,-313642.002778,-800.371265,-1387654.410321,-6364.346309,-1281070.921549,-1609530.521575,-1955975.944516,-2428444.436603,-3470447.894388,-2434530.906025,-2442274.444374,-2379217.848685,-2379784.331296,-19301.714814,-2470466.073807,-2451032.930736
102.0,1.3984375,-326859.393938,-922.680011,-1413116.087093,-11742.176025,-1327716.687646,-1641913.371314,-1975488.480984,-2460704.977596,-3500778.853986,-2477008.518816,-2484701.095188,-2421845.128756,-2403686.035119,-31882.349477,-2512551.547593,-2487589.298199
103.0,1.40234375,-330626.825169,-1038.015013,-1419871.499523,-13435.186557,-1345855.932934,-1657367.188617,-1981061.575539,-2471726.712194,-3515355.588836,-2489876.68632,-2497243.642478,-2435149.423498,-2416146.506804,-36045.674806,-2524837.139229,-2501668.751439
104.0,1.40625,-332725.385752,-1220.405247,-1427132.240192,-14877.142295,-1360809.786416,-1674998.423457,-1988284.765277,-2486316.321649,-3532280.329738,-2503513.575019,-2510529.698197,-2448481.076775,-2432391.57586,-38757.388444,-2538001.422644,-2518633.189038
105.0,1.41015625,-333031.694058,-960.230942,-1430033.85425,-15058.459647,-1364667.339881,-1685216.568138,-1991200.863266,-2494085.609208,-3536817.018606,-2507384.539531,-2514075.578937,-2451995.843887,-2442103.319419,-39496.605336,-2541466.300662,-2524607.54211
106.0,1.4140625,-332750.062078,-771.939847,-1431794.456457,-14939.905994,-1364814.861395,-1690092.824709,-1992528.556887,-2498259.126933,-3536835.794072,-2507620.03751,-2514084.698449,-2451974.922654,-2447599.702787,-39331.381241,-2541440.015011,-2524763.110252
107.0,1.41796875,-332563.380309,-1028.895501,-1433703.11662,-15057.386763,-1364809.496976,-1692820.631602,-1993711.947645,-2501396.23897,-3536731.724349,-2507660.27065,-2513967.21768,-2451854.223234,-2451079.064736,-39292.220985,-2541316.09694,-2524609.151436
108.0,1.421875,-332545.677727,-1283.168946,-1435672.394713,-15214.027788,-1364799.304581,-1694532.417599,-1995032.13108,-2503848.314744,-3536641.065674,-2507667.780837,-2513866.366609,-2451756.590814,-2453248.435646,-39557.759709,-2541199.689054,-2524472.35876
109.0,1.42578125,-332516.173424,-1117.944851,-1437564.425178,-15160.920043,-1364803.059674,-1695579.015682,-1996356.069607,-2504960.358734,-3536556.844301,-2507676.363906,-2513791.264748,-2451666.468581,-2454735.988943,-39705.817664,-2541102.056635,-2524357.023759
110.0,1.4296875,-332383.135841,-858.843429,-1439264.409454,-15010.71632,-1364810.56986,-1695803.248382,-1997372.090503,-2505066.574224,-3536509.637417,-2507711.76907,-2513759.078236,-2451612.287952,-2455866.808399,-39497.67822,-2541056.995518,-2524289.432083
111.0,1.43359375,-332265.118631,-1036.942129,-1440764.837356,-15076.162228,-1364797.695255,-1695764.624568,-1998141.34814,-2505061.209805,-3536461.89409,-2507708.013977,-2513703.288281,-2451560.789533,-2456674.68985,-39368.932172,-2541010.861517,-2524223.449734
112.0,1.4375,-332293.013608,-1318.037667,-1442178.898117,-15240.313439,-1364762.826534,-1695707.225288,-1999023.25857,-2505025.804642,-3536401.276159,-2507667.244395,-2513626.040653,-2451494.807183,-2457235.271601,-39573.852965,-2540932.541005,-2524140.837686
113.0,1.44140625,-332322.51791,-1219.868805,-1443476.014552,-15222.074416,-1364759.607882,-1695684.694729,-1999988.85393,-2505023.122433,-3536372.308299,-2507674.218139,-2513601.364327,-2451464.229997,-2457710.559095,-39763.216944,-2540895.526516,-2524100.604546
114.0,1.4453125,-332235.077886,-909.805406,-1444586.449216,-15053.095228,-1364773.555371,-1695672.356566,-2000718.414869,-2505037.606363,-3536365.334554,-2507712.305512,-2513606.728745,-2451456.719811,-2458150.977868,-39578.680942,-2540898.208725,-2524090.412151
115.0,1.44921875,-332124.570861,-1013.338687,-1445509.129227,-15078.844437,-1364757.462115,-1695636.414961,-2001186.192177,-2505022.049549,-3536337.439577,-2507701.040232,-2513572.932908,-2451424.533299,-2458479.816732,-39396.827149,-2540874.605283,-2524053.934104
116.0,1.453125,-328742.841332,-1252.591759,-1432998.232007,-13413.192441,-1344618.897989,-1675649.127442,-1990311.442651,-2485427.973917,-3517164.470811,-2487928.329459,-2493849.038345,-2431666.306456,-2439052.574522,-36025.826457,-2521255.853326,-2504452.348286
117.0,1.45703125,-315770.604106,-990.808128,-1391218.530085,-7219.434645,-1284964.416619,-1616175.426981,-1955353.135509,-2429201.892519,-3464791.651343,-2431535.951082,-2438088.052045,-2375673.040828,-2382404.849816,-22420.051386,-2465870.912775,-2448977.821944
118.0,1.4609375,-313937.582247,-787.496661,-1384713.099565,-6338.5971,-1278269.085678,-1606830.073217,-1950656.050522,-2422408.392716,-3460281.784568,-2426273.456368,-2433641.48541,-2371115.430726,-2374083.027134,-19857.468588,-2461567.039677,-2444032.364372
119.0,1.46484375,-317411.043335,-801.444149,-1390695.499265,-7891.596304,-1291392.063068,-1614830.030779,-1955594.534349,-2431237.152962,-3469194.766187,-2440321.259537,-2448086.255561,-2385011.957289,-2380109.415067,-22957.566137,-2476034.876828,-2454906.577457
120.0,1.46875,-330599.466634,-1016.020896,-1420307.090319,-13770.999166,-1348663.133223,-1657968.003508,-1980591.116022,-2474990.960955,-3518130.066172,-2496052.205092,-2503605.306578,-2440969.281312,-2416887.333022,-35969.500061,-2531205.777074,-2505145.431178
121.0,1.47265625,-333167.950293,-1049.280292,-1426839.879374,-15021.445158,-1363866.432174,-1676096.519959,-1986906.646121,-2487819.968202,-3534686.271511,-2506856.680734,-2513943.614238,-2451834.911327,-2433123.282566,-39256.27938,-2541319.315591,-2520634.117202
122.0,1.4765625,-330053.368813,-833.094219,-1419574.847171,-13404.609371,-1347427.171162,-1667578.895995,-1980735.955326,-2477528.330985,-3520114.90108,-2490340.708535,-2497166.931291,-2434986.881612,-2425894.191968,-36335.889856,-2524582.329343,-2507547.081416
123.0,1.48046875,-331431.487969,-776.231381,-1424902.251351,-14189.423822,-1357270.87942,-1678135.535495,-1985291.956102,-2488126.276508,-3529675.904474,-2500137.74635,-2506872.237548,-2444692.187869,-2435523.323479,-37645.344453,-2534241.501599,-2517512.025537
124.0,1.484375,-332700.709426,-1031.57771,-1430487.147628,-15050.413019,-1364841.683488,-1689320.34842,-1990064.679392,-2498089.074861,-3536786.977862,-2507631.839231,-2514151.753682,-2451987.797259,-2446583.681891,-39228.384403,-2541454.498941,-2524764.183136
125.0,1.48828125,-332650.820333,-1191.973828,-1432550.303048,-15170.039555,-1364815.934278,-1692214.452292,-1991693.3169,-2501203.65634,-3536657.15893,-2507650.078255,-2514007.987262,-2451837.057094,-2450315.70796,-39542.739337,-2541281.76466,-2524595.203947
126.0,1.4921875,-332556.943006,-931.263081,-1434619.359329,-15053.63167,-1364796.085929,-1694166.027804,-1993239.34236,-2503631.59223,-3536547.724789,-2507677.43679,-2513912.500609,-2451717.430558,-2452722.722617,-39580.826709,-2541158.383031,-2524457.338388
127.0,1.49609375,-332390.646027,-835.776429,-1436493.687212,-14983.357785,-1364158.792991,-1694810.294486,-1994442.045026,-2504254.401237,-3535820.846059,-2507044.435387,-2513185.085438,-2450973.92213,-2453751.618117,-39323.871055,-2540440.623813,-2523712.757076
128.0,1.5,-331261.435898,-1108.288897,-1433207.444335,-14409.901429,-1355883.640752,-1686665.497621,-1991072.65366,-2496204.01814,-3527606.848193,-2498769.81959,-2504878.81957,-2442663.364728,-2446434.551052,-38198.416018,-2532172.445318,-2515435.995512
129.0,1.50390625,-330817.262032,-1268.148573,-1431805.721737,-14164.211054,-1353040.498858,-1682781.122062,-1989451.526338,-2493387.161897,-3524886.551486,-2495919.703951,-2502119.899049,-2439911.954392,-2442223.482397,-37817.005851,-2529428.545168,-2512667.955478
130.0,1.5078125,-332492.03354,-1017.09378,-1439711.801971,-15092.255484,-1364707.573021,-1695228.719143,-1996328.711072,-2504959.822292,-3536368.016764,-2507584.632347,-2513730.646817,-2451529.675904,-2454173.797867,-39617.841198,-2540964.191075,-2524203.601385
131.0,1.51171875,-332359.532399,-810.563661,-1440997.653126,-14975.847599,-1364822.908023,-1695831.143359,-1997280.895386,-2505076.766619,-3536408.249904,-2507724.107233,-2513781.608794,-2451565.61751,-2455720.896211,-39425.79501,-2541006.569982,-2524251.881153
132.0,1.515625,-332255.999119,-1041.770106,-1442172.997257,-15075.089344,-1364788.039301,-1695778.035614,-1998022.794488,-2505049.408084,-3536334.220926,-2507694.066488,-2513696.314537,-2451485.15123,-2456641.966896,-39347.474497,-2540928.24947,-2524166.586896
133.0,1.51953125,-332298.378026,-1294.970667,-1443343.513411,-15227.975276,-1364784.284208,-1695751.213521,-1998925.089708,-2505046.189433,-3536302.034414,-2507686.556302,-2513651.25342,-2451447.600299,-2457274.968299,-39587.264012,-2540878.360376,-2524115.624918
134.0,1.5234375,-332318.762817,-1141.011851,-1444438.391261,-15178.086183,-1364788.039301,-1695733.510939,-1999871.909603,-2505051.01741,-3536279.503856,-2507703.186,-2513636.233048,-2451424.533299,-2457774.395677,-39738.004176,-2540846.710306,-2524083.974848
135.0,1.52734375,-332221.666839,-869.572266,-1445381.456063,-15021.445158,-1364793.40372,-1695713.66259,-2000553.190774,-2505058.527596,-3536264.483483,-2507731.080977,-2513631.405071,-2451407.903601,-2458197.64831,-39525.573197,-2540840.809445,-2524064.662941
136.0,1.53125,-332125.643745,-1033.723478,-1446180.218003,-15080.453763,-1364785.893534,-1695688.449822,-2001014.53078,-2505051.553852,-3536245.171576,-2507725.716558,-2513604.046536,-2451385.909484,-2458522.732082,-39378.588126,-2540827.934841,-2524035.158638
137.0,1.53515625,-332171.777746,-1320.719876,-1446948.939198,-15244.068532,-1364788.039301,-1695684.158288,-2001616.954996,-2505054.236061,-3536238.734274,-2507716.060605,-2513578.833768,-2451374.644205,-2458706.1952,-39571.707198,-2540809.159375,-2524015.846731
138.0,1.5390625,-332223.276165,-1234.352736,-1447673.67216,-15233.339695,-1364764.435859,-1695653.581101,-2002335.787098,-2505027.413968,-3536202.256227,-2507690.311395,-2513541.819279,-2451337.629716,-2458759.839387,-39770.190688,-2540762.488933,-2523972.931382
139.0,1.54296875,-332154.611606,-923.752895,-1448272.341284,-15060.605414,-1364751.561254,-1695622.467473,-2002843.797546,-2505015.075805,-3536174.897692,-2507691.920721,-2513529.481116,-2451311.344065,-2458749.646991,-39594.237756,-2540747.468561,-2523947.182172
140.0,1.546875,-332051.614768,-1012.265803,-1448741.191476,-15075.089344,-1364762.290092,-1695624.61324,-2003102.898968,-2505031.705502,-3536180.26211,-2507704.258884,-2513532.163326,-2451317.781367,-2458738.918154,-39400.0458,-2540765.171142,-2523952.010149
141.0,1.55078125,-332084.874163,-1317.501225,-1449211.114551,-15240.849881,-1364769.263836,-1695631.586985,-2003479.481158,-2505038.142805,-3536184.553645,-2507696.212256,-2513517.679395,-2451321.53646,-2458746.42834,-39539.520686,-2540760.343165,-2523948.255056
142.0,1.5546875,-332153.538722,-1309.454597,-1449675.673208,-15282.155905,-1364763.899417,-1695624.076798,-2004023.433211,-2505028.486851,-3536170.606157,-2507686.556302,-2513501.586139,-2451306.516088,-2458741.600363,-39771.800014,-2540735.130398,-2523931.625358
143.0,1.55859375,-332109.550489,-984.907268,-1450063.520678,-15168.430229,-1364772.482487,-1695623.540357,-2004433.274798,-2505042.970782,-3536170.606157,-2507710.159744,-2513519.288721,-2451309.198297,-2458724.434224,-39648.418385,-2540748.005002,-2523938.06266
144.0,1.5625,-332002.262116,-990.808128,-1450337.642472,-15099.229228,-1364768.190952,-1695611.738636,-2004579.186985,-2505043.507224,-3536162.559529,-2507708.013977,-2513508.023442,-2451300.078785,-2458687.956177,-39425.258568,-2540755.515189,-2523930.552474
145.0,1.56640625,-332009.772302,-1297.116434,-1450611.764266,-15216.709997,-1364787.50286,-1695629.977659,-2004788.935755,-2505054.236061,-3536171.67904,-2507701.576674,-2513501.049698,-2451309.734739,-2458700.29434,-39501.969755,-2540763.561817,-2523935.380451
146.0,1.5703125,-332086.483489,-1377.046272,-1450920.218339,-15288.056766,-1364785.893534,-1695629.977659,-2005206.287528,-2505043.507224,-3536161.486645,-2507686.556302,-2513482.810674,-2451298.46946,-2458708.340968,-39757.316084,-2540737.812607,-2523919.823637
147.0,1.57421875,-332079.509745,-1276.195201,-1451179.319761,-15179.695508,-1364778.383348,-1695618.71238,-2005557.656951,-2505035.997037,-3536138.419645,-2507684.410534,-2513475.83693,-2451277.548227,-2458672.935804,-39700.453246,-2540724.938002,-2523903.193939
148.0,1.578125,-331995.288371,-1094.341409,-1451326.841274,-15092.255484,-1364793.940162,-1695627.831892,-2005637.586789,-2505057.454712,-3536149.148482,-2507704.258884,-2513492.466628,-2451289.88639,-2458646.650153,-39454.226429,-2540756.051631,-2523918.750753
149.0,1.58203125,-331993.142604,-1207.530642,-1451477.044997,-15202.226067,-1364798.768139,-1695635.342078,-2005725.026813,-2505063.892014,-3536156.122226,-2507693.530046,-2513483.347116,-2451294.714367,-2458645.577269,-39467.637475,-2540760.879607,-2523919.287195
150.0,1.5859375,-332085.410605,-1349.687737,-1451681.96579,-15295.03051,-1364798.768139,-1695642.315822,-2006042.600398,-2505059.064038,-3536155.049343,-2507681.191883,-2513469.399627,-2451290.959274,-2458670.253595,-39725.666013,-2540744.249909,-2523911.777009
151.0,1.58984375,-332089.165698,-1075.029501,-1451865.96535,-15207.054044,-1364799.841022,-1695636.951403,-2006355.882449,-2505060.673363,-3536145.929831,-2507689.238511,-2513472.618279,-2451285.594855,-2458655.769665,-39742.295711,-2540741.031258,-2523908.021916
152.0,1.59375,-331992.06972,-911.414732,-1451962.524886,-15084.208856,-1364776.23758,-1695604.228449,-2006409.526635,-2505041.361456,-3536112.670435,-2507669.390162,-2513447.941953,-2451256.626994,-2458584.422896,-39491.240918,-2540730.302421,-2523880.663381
153.0,1.59765625,-331817.189672,-1161.933084,-1451087.588201,-15050.413019,-1363413.138796,-1694250.785619,-2005588.770579,-2503687.382184,-3534758.154721,-2506288.588797,-2512070.89568,-2449889.236675,-2457211.668159,-39291.148101,-2539375.250265,-2522520.783248
154.0,1.6015625,-330193.38014,-1356.12504,-1441149.466175,-13982.357261,-1350035.887961,-1680984.041808,-1997015.893104,-2490417.956164,-3521572.950074,-2492877.005682,-2498745.679706,-2436558.656282,-2443268.471154,-37706.498826,-2526121.917501,-2509280.325089
155.0,1.60546875,-331653.574902,-1135.11099,-1447847.479325,-14805.795527,-1360666.019996,-1691646.360355,-2003017.068269,-2500952.065104,-3532153.729457,-2503478.706298,-2509438.575439,-2447266.035946,-2453166.896482,-39073.352703,-2536774.043652,-2519912.602891
156.0,1.609375,-332123.497978,-880.837545,-1450663.799127,-15049.340135,-1364789.112185,-1695716.881241,-2005641.878324,-2505045.116549,-3536195.818924,-2507624.865487,-2513530.017558,-2451351.577205,-2458158.488054,-39486.412941,-2540841.882329,-2523993.852615
157.0,1.61328125,-332023.183349,-1091.122757,-1450673.991522,-15111.567391,-1364784.82065,-1695685.231171,-2005646.706301,-2505047.798758,-3536165.241738,-2507621.110394,-2513488.711535,-2451317.781367,-2458602.125478,-39386.634754,-2540811.841585,-2523964.348312
158.0,1.6171875,-332071.463117,-1347.005528,-1450849.408013,-15264.453323,-1364784.284208,-1695674.502334,-2005889.178024,-2505047.798758,-3536149.148482,-2507611.454441,-2513453.842813,-2451296.860134,-2458671.862921,-39609.258128,-2540774.827096,-2523934.844009
159.0,1.62109375,-332104.18607,-1199.484014,-1451085.442434,-15245.141416,-1364782.674883,-1695659.481962,-2006259.322913,-2505047.798758,-3536132.518784,-2507616.818859,-2513443.113976,-2451277.011785,-2458666.498502,-39764.289828,-2540748.541444,-2523913.922776
160.0,1.625,-332021.037581,-976.86064,-1451268.905552,-15118.004694,-1364784.284208,-1695646.070915,-2006418.646147,-2505054.236061,-3536122.326389,-2507637.20365,-2513448.478395,-2451269.501599,-2458626.265362,-39480.51208,-2540754.442305,-2523908.021916
161.0,1.62890625,-331969.539162,-1237.571387,-1451392.287182,-15112.103833,-1364814.861395,-1695671.820125,-2006390.214728,-2505082.131038,-3536148.61204,-2507665.635069,-2513461.352999,-2451289.88639,-2458673.472246,-39005.224586,-2540763.561817,-2523925.188056
162.0,1.6328125,-332042.495256,-1321.79276,-1451577.896068,-15246.2143,-1364817.007162,-1695677.184543,-2006545.78287,-2505082.66748,-3536148.075598,-2507650.614697,-2513440.968208,-2451284.521971,-2458692.247712,-39442.424708,-2540726.010886,-2523912.313451
163.0,1.63671875,-332102.576745,-1232.206968,-1451795.155024,-15254.260928,-1364797.695255,-1695656.26331,-2006871.403083,-2505061.746247,-3536122.862831,-2507628.084138,-2513412.000348,-2451256.090552,-2458677.227339,-39777.700875,-2540683.631978,-2523882.272706
164.0,1.640625,-332044.641023,-911.951174,-1451947.504514,-15130.879299,-1364800.377464,-1695649.826008,-2007035.017852,-2505067.647108,-3536116.96197,-2507645.250278,-2513423.265627,-2451253.408343,-2458654.696781,-39608.721686,-2540694.360816,-2523882.272706
165.0,1.64453125,-331943.789952,-977.397082,-1452017.778399,-15077.771554,-1364818.616488,-1695664.309938,-2006965.280409,-2505089.104782,-3536129.300133,-2507662.416418,-2513435.067348,-2451268.428715,-2458644.504386,-39403.264451,-2540726.010886,-2523899.438846
166.0,1.6484375,-331993.679046,-1281.55962,-1452135.795609,-15223.683742,-1364823.980906,-1695671.820125,-2007026.971224,-2505086.422573,-3536133.055226,-2507643.640953,-2513417.364766,-2451268.965157,-2458650.941688,-39527.718965,-2540718.5007,-2523894.610869
167.0,1.65234375,-332068.780907,-1289.606248,-1452298.873937,-15275.718603,-1364812.179185,-1695663.237055,-2007298.947251,-2505073.011526,-3536118.034854,-2507623.792603,-2513394.834208,-2451253.944785,-2458652.014572,-39765.899153,-2540690.069281,-2523873.153195
168.0,1.65625,-332025.865558,-961.303826,-1452418.500473,-15163.065811,-1364820.225813,-1695665.382822,-2007467.926439,-2505087.495457,-3536118.034854,-2507645.78672,-2513415.755441,-2451258.772762,-2458636.994199,-39651.637036,-2540705.089653,-2523881.199823
169.0,1.66015625,-331932.524673,-944.674128,-1452450.686985,-15058.996088,-1364805.205441,-1695644.998031,-2007379.413531,-2505076.766619,-3536097.113621,-2507628.084138,-2513398.052859,-2451237.851529,-2458583.350013,-39415.602614,-2540704.016769,-2523866.715892
170.0,1.6640625,-331966.856953,-1250.445992,-1452505.404056,-15192.570113,-1364834.709744,-1695678.257427,-2007357.419414,-2505101.442945,-3536120.180621,-2507636.130766,-2513407.172371,-2451263.600738,-2458609.099222,-39474.61122,-2540730.302421,-2523889.246451
171.0,1.66796875,-332051.614768,-1347.005528,-1452623.957708,-15278.400812,-1364855.630977,-1695702.933753,-2007575.214812,-2505118.072643,-3536142.174738,-2507646.323162,-2513417.364766,-2451282.912646,-2458650.941688,-39731.566874,-2540737.812607,-2523903.730381
172.0,1.671875,-332047.859674,-1281.55962,-1452715.152826,-15203.835392,-1364850.803,-1695694.887125,-2007757.605047,-2505112.708224,-3536124.472156,-2507645.78672,-2513414.146115,-2451270.038041,-2458624.119595,-39689.187966,-2540728.693095,-2523889.782892
173.0,1.67578125,-331960.956092,-1061.082013,-1452723.735896,-15083.672414,-1364851.339442,-1695693.277799,-2007677.675209,-2505122.90062,-3536120.717063,-2507651.687581,-2513421.656301,-2451269.501599,-2458580.667803,-39437.060289,-2540749.077886,-2523896.756637
174.0,1.6796875,-331939.498417,-1144.230502,-1452747.87578,-15161.456485,-1364816.47072,-1695663.237055,-2007600.964022,-2505091.25055,-3536092.822086,-2507605.55358,-2513377.131626,-2451239.460854,-2458548.481291,-39434.914522,-2540719.037142,-2523862.424357
175.0,1.68359375,-332019.428255,-1296.04355,-1452828.878502,-15265.526207,-1364819.689372,-1695671.820125,-2007769.406768,-2505088.031899,-3536095.504295,-2507593.215417,-2513365.329905,-2451236.778645,-2458579.59492,-39691.333734,-2540706.162537,-2523855.450613
176.0,1.6875,-332027.474883,-1033.187036,-1452906.662572,-15173.794648,-1364820.225813,-1695668.065032,-2007970.036026,-2505087.495457,-3536089.066993,-2507599.652719,-2513370.157882,-2451234.096436,-2458569.938966,-39721.374479,-2540702.943886,-2523854.377729
177.0,1.69140625,-331936.279766,-851.333243,-1452909.344782,-15068.1156,-1364822.908023,-1695668.065032,-2007918.001165,-2505095.542085,-3536084.239016,-2507608.772231,-2513375.522301,-2451234.096436,-2458542.043989,-39382.343219,-2540718.5007,-2523856.523497
178.0,1.6953125,-331923.941603,-1096.487176,-1452898.615944,-15134.09795,-1364834.709744,-1695682.01252,-2007799.447513,-2505103.588713,-3536100.332272,-2507609.308673,-2513369.084998,-2451239.997296,-2458593.005966,-39052.967912,-2540710.454072,-2523862.960799
179.0,1.69921875,-331100.503337,-1301.407969,-1447963.88721,-14684.559665,-1358020.288708,-1688912.116159,-2003530.979577,-2498343.348306,-3529374.960586,-2500780.403707,-2506560.028381,-2444435.232214,-2451731.378046,-38624.887303,-2533913.735618,-2517098.428857
180.0,1.703125,-330160.120745,-1107.216013,-1442257.755072,-13996.30475,-1351500.374258,-1682510.755361,-1998579.621146,-2491889.952646,-3523027.243975,-2494235.276489,-2500150.084513,-2438009.731532,-2444236.212282,-37607.793523,-2527554.217285,-2510727.645246
181.0,1.70703125,-332047.323233,-830.948452,-1451082.760225,-14980.675576,-1364501.042903,-1695471.727308,-2006464.243706,-2504759.193034,-3535870.735153,-2507224.679854,-2513143.779414,-2451017.373922,-2457448.775464,-39383.416102,-2540492.658674,-2523651.602704
182.0,1.7109375,-332006.553651,-1017.09378,-1451243.692785,-15079.917321,-1364876.015768,-1695809.149243,-2006628.394917,-2505138.993876,-3536205.474878,-2507606.626464,-2513474.764046,-2451352.113647,-2458554.382152,-39351.22959,-2540826.325515,-2524000.289917
183.0,1.71484375,-332045.177465,-1282.096062,-1451326.304832,-15237.094788,-1364891.03614,-1695809.149243,-2006789.327477,-2505157.232899,-3536200.110459,-2507614.13665,-2513455.988581,-2451345.676344,-2458759.302945,-39567.415663,-2540802.722073,-2523987.951754
184.0,1.71875,-332077.900419,-1157.105107,-1451504.939974,-15239.776998,-1364906.056512,-1695807.539917,-2007099.927318,-2505172.789713,-3536198.501134,-2507633.448557,-2513457.597906,-2451344.60346,-2458770.568224,-39737.467735,-2540790.38391,-2523982.587335
185.0,1.72265625,-331995.288371,-863.134964,-1451654.607255,-15100.838554,-1364880.307303,-1695762.4788,-2007220.090296,-2505154.55069,-3536155.585784,-2507625.938371,-2513429.166487,-2451303.833878,-2458699.757898,-39536.302034,-2540760.879607,-2523943.427079
186.0,1.7265625,-331921.795836,-990.271686,-1451755.994768,-15064.360507,-1364885.671721,-1695761.405916,-2007144.988435,-2505161.524434,-3536150.757808,-2507626.474813,-2513420.046976,-2451299.005902,-2458661.670525,-39362.49487,-2540768.926235,-2523936.989777
187.0,1.73046875,-331980.804441,-1287.996922,-1451913.172235,-15219.928648,-1364880.843744,-1695757.114381,-2007241.547971,-2505149.186271,-3536140.02897,-2507600.725603,-2513390.542673,-2451284.521971,-2458658.988316,-39532.010499,-2540747.468561,-2523914.459218
188.0,1.734375,-332044.104581,-1278.877411,-1452105.754865,-15242.459207,-1364874.406442,-1695751.213521,-2007516.206207,-2505142.212527,-3536126.617924,-2507591.06965,-2513376.058743,-2451269.501599,-2458662.743409,-39746.587246,-2540723.865118,-2523898.365962
189.0,1.73828125,-332006.017209,-1185.536526,-1452244.693308,-15127.124205,-1364878.161535,-1695746.921986,-2007647.634464,-2505142.748969,-3536115.889086,-2507603.407813,-2513381.423161,-2451261.454971,-2458625.192478,-39589.946221,-2540727.620212,-2523894.074427
190.0,1.7421875,-331913.749208,-989.198803,-1452300.483263,-15057.923205,-1364853.485209,-1695717.417683,-2007547.319835,-2505126.655713,-3536090.139877,-2507578.195045,-2513354.601068,-2451238.387971,-2458565.110989,-39376.442358,-2540719.573584,-2523871.007427
191.0,1.74609375,-331940.034859,-1215.040829,-1452399.188566,-15201.153183,-1364858.849628,-1695724.927869,-2007562.340207,-2505130.410806,-3536095.504295,-2507565.32044,-2513340.653579,-2451242.679506,-2458576.91271,-39486.949383,-2540717.427816,-2523870.470985
192.0,1.75,-332013.527395,-1244.008689,-1452547.246521,-15264.453323,-1364896.937,-1695765.161009,-2007796.765303,-2505165.279527,-3536130.373017,-2507593.751859,-2513370.157882,-2451274.329576,-2458630.556897,-39730.49399,-2540738.885491,-2523897.82952
193.0,1.75390625,-331986.705302,-926.435104,-1452660.435755,-15163.602252,-1364915.176024,-1695776.962731,-2007948.04191,-2505188.346528,-3536141.101854,-2507624.865487,-2513395.907092,-2451288.277064,-2458618.218734,-39632.86157,-2540760.879607,-2523915.532102
194.0,1.7578125,-331908.384789,-896.930802,-1452689.403616,-15057.386763,-1364910.884489,-1695771.06187,-2007842.362862,-2505188.346528,-3536134.12811,-2507622.71972,-2513391.079115,-2451280.766878,-2458604.807687,-39213.364031,-2540768.389793,-2523912.313451
195.0,1.76171875,-331924.478045,-1203.775549,-1452737.683384,-15178.622625,-1364882.989512,-1695749.604195,-2007798.911071,-2505156.160016,-3536111.597551,-2507581.950138,-2513347.627324,-2451250.726134,-2458621.437385,-39191.906356,-2540711.526956,-2523877.981171
196.0,1.765625,-332009.772302,-1309.991039,-1452841.216664,-15269.2813,-1364888.890372,-1695759.260149,-2007992.566585,-2505158.305783,-3536115.352644,-2507576.585719,-2513340.653579,-2451253.408343,-2458649.332362,-39697.234594,-2540693.287932,-2523876.371846
197.0,1.76953125,-332001.725674,-1026.213291,-1452931.338898,-15179.159067,-1364906.056512,-1695770.525428,-2008162.618656,-2505177.081248,-3536125.008598,-2507602.334929,-2513362.647696,-2451264.13718,-2458652.014572,-39685.969315,-2540709.91763,-2523891.392218
198.0,1.7734375,-331917.504301,-1039.624338,-1452938.849084,-15070.797809,-1364915.176024,-1695775.889847,-2008071.423539,-2505187.273644,-3536125.54504,-2507611.454441,-2513370.157882,-2451264.13718,-2458620.364502,-39433.305196,-2540729.229537,-2523897.82952
199.0,1.77734375,-331918.577185,-1205.384875,-1452944.213503,-15152.336973,-1364890.499698,-1695758.187265,-2007968.426701,-2505161.524434,-3536103.550923,-2507573.367068,-2513333.143393,-2451244.825273,-2458594.615292,-39415.602614,-2540707.771862,-2523869.934543
200.0,1.78125,-332004.944325,-1322.865644,-1453020.92469,-15271.96351,-1364908.738721,-1695781.254265,-2008110.583795,-2505173.326155,-3536118.571296,-2507575.512835,-2513338.507812,-2451260.918529,-2458633.775548,-39670.948943,-2540714.209165,-2523880.126939
201.0,1.78515625,-332022.110465,-1078.784594,-1453099.781644,-15203.835392,-1364938.243024,-1695805.930591,-2008297.265565,-2505205.512667,-3536142.71118,-2507609.845115,-2513370.157882,-2451283.449088,-2458653.623897,-39722.983804,-2540740.494816,-2523908.558358
202.0,1.7890625,-331933.597557,-887.274848,-1453107.29183,-15069.188484,-1364910.348047,-1695773.207637,-2008243.621378,-2505181.372783,-3536106.233133,-2507588.923882,-2513343.872231,-2451250.726134,-2458584.959338,-39473.538336,-2540723.865118,-2523881.736264
203.0,1.79296875,-331909.457673,-1124.382153,-1453089.052807,-15140.535252,-1364891.03614,-1695755.505056,-2008098.782074,-2505159.915109,-3536082.62969,-2507553.518719,-2513311.149277,-2451230.341343,-2458546.871966,-39394.14494,-2540710.454072,-2523856.523497
