Index,Timestamp,Fp1,Fp2,F3,F4,T5,T6,O1,O2,F7,F8,C3,C4,T3,T4,P3,P4
0.0,0.0,0.0,0.0,0.0,0.0,0.0,0.0,0.0,0.0,0.0,0.0,0.0,0.0,0.0,0.0,0.0,0.0
1.0,0.00390625,-325030.127171,-8672.119221,-1244713.574018,-19049.587136,-1215933.467857,-1493448.256665,-1713446.821385,-2173184.475086,-3572872.885808,-2627549.127048,-2633811.012961,-2482805.30963,-2486327.050486,-51992.482184,-2547588.71169,-2524002.435684
2.0,0.0078125,-324940.004938,-8822.859385,-1244659.393389,-19048.514253,-1215946.342462,-1493460.594828,-1713258.53029,-2173204.323435,-3572889.515506,-2627556.100792,-2633813.158728,-2482813.356258,-2486307.738579,-51584.786366,-2547595.148992,-2524014.773847
3.0,0.01171875,-325025.299194,-9090.007435,-1244721.084204,-19204.082394,-1215964.045043,-1493486.344038,-1713320.221105,-2173222.562459,-3572911.509623,-2627556.637234,-2633813.69517,-2482830.522398,-2486352.799696,-51967.269417,-2547578.519294,-2524026.575569
4.0,0.015625,-325134.733335,-9022.952202,-1244853.048903,-19212.129022,-1215937.759392,-1493462.740596,-1713554.6462,-2173197.886133,-3572878.250227,-2627526.59649,-2633784.190867,-2482798.872328,-2486389.277743,-52297.181165,-2547537.21327,-2523991.170405
5.0,0.01953125,-325070.896753,-8740.78378,-1244651.883203,-19064.607509,-1215407.754827,-1492928.980938,-1713248.874336,-2172680.756173,-3572345.563453,-2627006.247879,-2633259.01428,-2482262.430461,-2485838.351946,-52085.823069,-2547018.473985,-2523464.920934
6.0,0.0234375,-324120.321765,-8401.75252,-1238690.941178,-17972.411868,-1203771.25785,-1481401.918102,-1705299.878752,-2161126.334801,-3560805.626012,-2615320.934692,-2621622.517302,-2470614.668204,-2473684.725009,-51023.131731,-2535473.708567,-2511905.135143
7.0,0.02734375,-324736.157028,-8932.293526,-1241749.196261,-18696.071946,-1210829.759935,-1488510.30928,-1708941.246145,-2168133.874909,-3567889.877306,-2622338.130753,-2628748.611063,-2477771.875593,-2478890.356885,-51594.442319,-2542590.682815,-2518987.240671
8.0,0.03125,-325264.552267,-9110.392226,-1244395.463991,-19222.857859,-1216005.351067,-1493626.891807,-1712390.030907,-2173276.743087,-3573011.824252,-2627528.205815,-2633904.353846,-2482938.347213,-2484402.83351,-52297.717607,-2547696.000063,-2524136.546151
9.0,0.03515625,-325232.902197,-8844.853502,-1244428.723386,-19075.872788,-1215977.992532,-1493564.66455,-1712506.438793,-2173261.186273,-3572945.30546,-2627518.549862,-2633852.855426,-2482870.755538,-2484972.534772,-52179.700396,-2547635.382132,-2524094.167244
10.0,0.0390625,-325096.645963,-8879.722223,-1244357.91306,-19068.899044,-1215965.654369,-1493531.405155,-1712390.030907,-2173261.186273,-3572916.874041,-2627511.576117,-2633823.887566,-2482841.251235,-2485314.784684,-51979.071138,-2547618.752434,-2524072.173127
11.0,0.04296875,-325096.645963,-9182.811878,-1244362.204595,-19232.513813,-1215990.330695,-1493551.253504,-1712414.707233,-2173289.617692,-3572934.576623,-2627520.159187,-2633823.887566,-2482856.271607,-2485585.151384,-52092.260372,-2547626.26262,-2524080.219755
12.0,0.046875,-325223.782685,-9274.543437,-1244492.023527,-19319.953837,-1215999.450207,-1493557.690806,-1712705.458725,-2173300.34653,-3572931.357972,-2627520.159187,-2633815.304496,-2482853.052956,-2485791.145061,-52364.236398,-2547608.023597,-2524072.173127
13.0,0.05078125,-325254.359872,-9026.707295,-1244597.166133,-19230.368046,-1216001.595974,-1493551.253504,-1712910.379518,-2173308.929599,-3572918.483367,-2627533.033792,-2633817.986705,-2482844.469886,-2485929.547063,-52311.128653,-2547605.877829,-2524063.590057
14.0,0.0546875,-325148.680824,-8992.911457,-1244568.734714,-19152.047533,-1215980.138299,-1493521.749201,-1712820.793727,-2173296.054995,-3572888.979064,-2627512.112559,-2633789.555286,-2482813.8927,-2485960.660691,-52086.895953,-2547593.003224,-2524035.69508
15.0,0.05859375,-325152.972359,-9292.246019,-1244566.052504,-19287.230884,-1215968.87302,-1493513.166131,-1712780.560587,-2173286.935483,-3572873.958692,-2627481.535373,-2633756.29589,-2482797.263002,-2486040.054088,-52140.54014,-2547573.154875,-2524014.773847
16.0,0.0625,-325304.785407,-9462.834533,-1244691.043459,-19401.493001,-1215995.158672,-1493544.816201,-1713014.985682,-2173312.148251,-3572896.48925,-2627490.118443,-2633767.024728,-2482816.038467,-2486126.95767,-52429.145864,-2547579.055736,-2524026.039127
17.0,0.06640625,-325386.324571,-9266.496809,-1244819.253065,-19315.662302,-1215984.966276,-1493530.332271,-1713234.926848,-2173306.24739,-3572875.031576,-2627482.608257,-2633756.29589,-2482796.190118,-2486157.534857,-52458.650167,-2547560.816712,-2524007.800103
18.0,0.0703125,-325314.441361,-9181.202552,-1244817.107298,-19274.892721,-1215976.383206,-1493515.311899,-1713154.99701,-2173308.929599,-3572856.792552,-2627476.707396,-2633746.103495,-2482780.633304,-2486143.050926,-52241.927653,-2547564.571806,-2523999.753475
19.0,0.07421875,-325279.572639,-9462.298091,-1244794.040298,-19378.426001,-1215981.747625,-1493523.894968,-1713043.953543,-2173318.585553,-3572860.011203,-2627463.832791,-2633734.301774,-2482782.779072,-2486162.362833,-52238.17256,-2547569.399782,-2524000.289917
20.0,0.078125,-325420.65685,-9699.941838,-1244898.11002,-19516.291561,-1216011.78837,-1493562.518783,-1713216.687824,-2173349.699181,-3572892.734157,-2627476.707396,-2633750.931472,-2482811.746932,-2486221.371439,-52526.241842,-2547584.420155,-2524020.674708
21.0,0.08203125,-325538.137619,-9565.831371,-1245033.829812,-19457.819397,-1216010.179044,-1493557.154364,-1713451.11292,-2173349.699181,-3572879.859552,-2627474.025187,-2633742.348402,-2482799.945211,-2486243.901997,-52636.212425,-2547568.86334,-2524008.872987
22.0,0.0859375,-325493.612944,-9426.356486,-1245047.240859,-19356.431884,-1215974.773881,-1493515.84834,-1713399.614501,-2173323.41353,-3572836.407761,-2627445.057326,-2633707.47968,-2482758.102746,-2486197.231555,-52432.364515,-2547545.259898,-2523974.540707
23.0,0.08984375,-325441.578083,-9674.192628,-1245005.398393,-19470.694002,-1215986.575602,-1493526.040736,-1713235.46329,-2173338.433902,-3572843.917947,-2627439.692907,-2633704.797471,-2482767.222258,-2486181.674741,-52374.965236,-2547558.670945,-2523984.733103
24.0,0.09375,-325570.324131,-9967.626329,-1245089.083325,-19648.792702,-1215988.184927,-1493535.69669,-1713345.433872,-2173338.433902,-3572843.917947,-2627415.553023,-2633687.631331,-2482763.467164,-2486228.345183,-52645.868378,-2547542.041247,-2523974.540707
25.0,0.09765625,-325718.918528,-9904.862631,-1245224.803117,-19653.620679,-1216003.2053,-1493554.472155,-1713576.103875,-2173357.209367,-3572853.573901,-2627428.427628,-2633698.360169,-2482773.123118,-2486264.82323,-52834.695916,-2547542.577689,-2523985.269545
26.0,0.1015625,-325717.845645,-9733.201234,-1245259.135396,-19572.081515,-1216002.132416,-1493548.034853,-1713558.401294,-2173364.719554,-3572841.77218,-2627434.328489,-2633700.505936,-2482765.07649,-2486228.881625,-52661.961634,-2547547.942108,-2523986.87887
27.0,0.10546875,-325667.956551,-9946.168655,-1245207.100535,-19610.168887,-1216012.324811,-1493557.154364,-1713363.672896,-2173379.739926,-3572847.136598,-2627431.646279,-2633696.214401,-2482771.513792,-2486212.788369,-52568.084308,-2547564.571806,-2523992.243289
28.0,0.109375,-325799.384808,-10302.366054,-1245269.864234,-19807.579494,-1216030.027393,-1493582.367132,-1713411.952664,-2173396.906066,-3572863.766296,-2627423.063209,-2633692.459308,-2482785.461281,-2486244.974881,-52825.039962,-2547564.571806,-2523998.680591
29.0,0.11328125,-325999.477625,-10353.864474,-1245413.094212,-19862.296565,-1216048.266417,-1493604.89769,-1713649.596411,-2173415.681531,-3572878.250227,-2627431.109837,-2633702.115262,-2482796.190118,-2486256.24016,-53098.088872,-2547565.644689,-2524008.336545
30.0,0.1171875,-326071.360835,-10205.270076,-1245483.904539,-19768.419238,-1216030.027393,-1493581.294248,-1713689.829551,-2173403.87981,-3572849.818808,-2627415.553023,-2633683.339796,-2482769.368025,-2486234.246043,-53003.675104,-2547547.942108,-2523987.415312
31.0,0.12109375,-325981.238601,-10355.473799,-1244806.378461,-19741.060703,-1214670.683702,-1492226.242092,-1712653.423864,-2172054.192073,-3571489.938675,-2626037.433867,-2632302.001989,-2481398.222613,-2484871.14726,-52825.039962,-2546192.889952,-2522626.462296
32.0,0.125,-325282.791291,-10218.681123,-1238731.71076,-18835.546832,-1202930.653445,-1480621.395185,-1704660.440047,-2160393.018769,-3559866.852744,-2614226.593283,-2620565.726824,-2469666.238983,-2472354.349179,-52156.633396,-2534541.909044,-2510968.507644
33.0,0.12890625,-326350.847048,-10833.979944,-1243351.011676,-19838.693123,-1212689.067446,-1490398.04821,-1710333.31279,-2170078.476677,-3569616.683676,-2623958.721633,-2630384.222315,-2479512.629451,-2480407.414485,-53164.071222,-2544315.343418,-2520725.312319
34.0,0.1328125,-326776.78189,-10906.936038,-1245125.02493,-20126.225963,-1216092.791092,-1493744.372576,-1712568.666049,-2173468.252834,-3572956.034297,-2627383.366511,-2633761.123867,-2482884.703026,-2484263.358624,-53477.889714,-2547655.230481,-2524109.187616
35.0,0.13671875,-326792.875146,-11102.200878,-1245064.406999,-20201.327825,-1216066.50544,-1493691.264831,-1712433.482699,-2173455.378229,-3572902.390111,-2627360.835953,-2633702.115262,-2482826.767305,-2484787.99877,-53395.814108,-2547602.122736,-2524074.855337
36.0,0.140625,-326939.860218,-11585.535,-1245079.427371,-20456.674153,-1216065.968998,-1493682.681761,-1712432.946257,-2173460.742648,-3572888.979064,-2627340.987604,-2633665.637215,-2482809.601165,-2485169.408938,-53622.192576,-2547572.081992,-2524056.079871
37.0,0.14453125,-327226.320174,-11881.650911,-1245222.120908,-20639.60083,-1216067.041882,-1493682.681761,-1712709.75026,-2173465.034183,-3572877.713785,-2627324.357906,-2633639.888005,-2482795.653676,-2485406.516243,-54028.815511,-2547536.676828,-2524032.476429
38.0,0.1484375,-327436.605386,-11840.344887,-1245354.085607,-20614.924504,-1216100.301278,-1493705.748761,-1712922.717681,-2173500.975788,-3572891.124832,-2627357.617302,-2633660.809238,-2482809.064723,-2485575.495431,-54131.81235,-2547547.405666,-2524047.496801
39.0,0.15234375,-327504.197062,-11987.8664,-1245354.085607,-20663.204272,-1216096.009743,-1493691.801273,-1712837.423424,-2173505.267323,-3572878.250227,-2627351.179999,-2633643.643098,-2482792.971467,-2485647.915083,-54042.226558,-2547540.431922,-2524036.231522
40.0,0.15625,-327649.036366,-12470.66408,-1245369.105979,-20910.503973,-1216065.968998,-1493662.833412,-1712780.560587,-2173481.663881,-3572847.136598,-2627300.754464,-2633589.998912,-2482760.784955,-2485721.944061,-54213.351514,-2547498.589456,-2523997.607708
41.0,0.16015625,-327956.953997,-12844.564062,-1245508.044423,-21132.590906,-1216082.062254,-1493688.04618,-1713007.475496,-2173502.585113,-3572860.547645,-2627294.853603,-2633589.46247,-2482774.732444,-2485800.801015,-54636.067705,-2547489.469944,-2524000.826359
42.0,0.1640625,-328214.982535,-12857.975108,-1245652.883727,-21142.246859,-1216057.385928,-1493661.760528,-1713238.145499,-2173481.127439,-3572819.778063,-2627263.739975,-2633555.13019,-2482736.645071,-2485832.451085,-54816.312172,-2547443.872385,-2523963.81187
43.0,0.16796875,-328309.932746,-12939.514272,-1245663.076122,-21156.73079,-1216075.08851,-1493671.952924,-1713166.798731,-2173504.730881,-3572826.751808,-2627279.296789,-2633558.348841,-2482742.545932,-2485821.722248,-54725.653496,-2547459.965641,-2523976.150033
44.0,0.171875,-328421.512654,-13387.443231,-1245645.909982,-21376.671955,-1216079.916487,-1493679.999552,-1713039.125566,-2173519.214811,-3572832.116226,-2627266.422184,-2633541.719144,-2482744.691699,-2485848.007899,-54828.650335,-2547460.502083,-2523978.2958
45.0,0.17578125,-328705.290402,-13809.62298,-1245754.807681,-21620.216563,-1216089.57244,-1493697.702133,-1713196.839475,-2173534.235184,-3572839.626412,-2627251.401812,-2633532.06319,-2482755.420536,-2485896.824109,-55233.663944,-2547448.700362,-2523978.832242
46.0,0.1796875,-328982.094405,-13869.168028,-1245900.183427,-21665.814121,-1216086.353789,-1493692.337715,-1713438.238315,-2173534.771625,-3572824.069598,-2627237.990765,-2633519.725027,-2482740.936606,-2485915.063133,-55485.25518,-2547425.09692,-2523965.957638
47.0,0.18359375,-329099.575174,-13892.77147,-1245924.859753,-21652.939517,-1216074.015626,-1493673.562249,-1713400.687385,-2173527.797881,-3572799.929714,-2627225.116161,-2633499.876678,-2482716.26028,-2485892.532574,-55400.497365,-2547409.003664,-2523947.182172
48.0,0.1875,-329185.405873,-14291.347777,-1245877.652869,-21841.767054,-1216083.67158,-1493685.900412,-1713233.853964,-2173543.891137,-3572809.049226,-2627218.678858,-2633491.83005,-2482724.84335,-2485864.637597,-55441.266947,-2547418.659618,-2523954.692358
49.0,0.19140625,-329442.897969,-14748.396247,-1245951.145405,-22099.795592,-1216081.525812,-1493691.801273,-1713328.804175,-2173549.255556,-3572806.903458,-2627191.856765,-2633469.299492,-2482722.697583,-2485919.354668,-55811.411835,-2547397.201943,-2523946.64573
50.0,0.1953125,-329727.7486,-14861.049039,-1246088.474523,-22178.116104,-1216070.260533,-1493684.291087,-1713564.302154,-2173541.208928,-3572787.591551,-2627170.935532,-2633449.451142,-2482704.458559,-2485954.223389,-56116.647257,-2547364.478989,-2523927.870265
51.0,0.19921875,-329860.249741,-14833.154062,-1246125.489011,-22138.419406,-1216069.724091,-1493680.535994,-1713563.22927,-2173546.573346,-3572776.326272,-2627171.471974,-2633445.159608,-2482692.656838,-2485932.229272,-56054.420001,-2547361.79678,-2523924.651614
52.0,0.203125,-329921.940556,-15164.675136,-1246062.188871,-22288.623129,-1216074.015626,-1493685.36397,-1713366.891547,-2173558.375068,-3572778.47204,-2627163.961788,-2633433.894328,-2482693.729722,-2485919.354668,-56037.790303,-2547366.624757,-2523927.870265
53.0,0.20703125,-330144.563931,-15637.280421,-1246100.276244,-22550.40676,-1216075.08851,-1493693.410598,-1713401.223827,-2173565.348812,-3572781.154249,-2627139.285462,-2633415.118863,-2482696.411931,-2485936.520807,-56357.509656,-2547352.140826,-2523923.57873
54.0,0.2109375,-330414.39419,-15788.020586,-1246216.147687,-22654.476482,-1216078.843603,-1493701.993668,-1713633.503155,-2173571.249672,-3572776.326272,-2627128.556624,-2633407.072235,-2482693.19328,-2485962.270017,-56694.395148,-2547333.365361,-2523919.287195
55.0,0.21484375,-330537.239377,-15690.388166,-1246255.844385,-22587.421249,-1216087.963115,-1493702.53011,-1713676.954946,-2173583.051393,-3572767.743202,-2627137.676136,-2633408.681561,-2482686.219536,-2485972.998854,-56647.724706,-2547333.365361,-2523919.287195
56.0,0.21875,-330536.702935,-15899.600494,-1246172.159454,-22668.423971,-1216061.677463,-1493676.244459,-1713472.034153,-2173566.958137,-3572739.311783,-2627105.489624,-2633371.667072,-2482656.178791,-2485934.37504,-56550.092286,-2547312.444128,-2523894.074427
57.0,0.22265625,-328168.312093,-14686.168991,-1237006.513716,-20626.726225,-1198713.683929,-1476448.950344,-1702262.00846,-2156504.888118,-3555962.628837,-2609951.688045,-2616269.363912,-2465523.834887,-2469255.860955,-54410.225679,-2530287.925039,-2506882.429943
58.0,0.2265625,-321104.445589,-10213.316704,-1211844.171505,-14287.056242,-1154808.59933,-1431660.882433,-1672092.517864,-2113521.410647,-3514458.658035,-2566923.685899,-2573729.523865,-2422830.036024,-2424737.086861,-47389.274524,-2487946.032041,-2464434.857897
59.0,0.23046875,-324891.188728,-12090.863239,-1220386.471794,-16987.5046,-1173206.94604,-1445585.840414,-1681070.408949,-2129994.467496,-3531523.946705,-2584321.032086,-2591566.21594,-2440801.375008,-2433735.899178,-50372.964188,-2505824.03014,-2482221.124437
60.0,0.234375,-330875.197753,-15854.002935,-1238965.599414,-22096.576941,-1210642.541724,-1481632.588104,-1701824.271896,-2165760.119648,-3568000.920773,-2621453.538114,-2628594.115805,-2477929.05306,-2462915.65453,-55816.239812,-2542695.288979,-2519188.942813
61.0,0.23828125,-331794.122671,-16880.216227,-1241656.391818,-23131.909744,-1216236.557512,-1491340.040128,-1705288.077031,-2172736.546127,-3573326.715628,-2627079.740415,-2633963.362451,-2483309.028543,-2472807.642556,-57010.89585,-2548000.162601,-2524660.649855
62.0,0.2421875,-331913.212766,-17177.941463,-1241667.657097,-23318.591513,-1216192.569279,-1493603.288365,-1705963.457342,-2173652.788836,-3573153.981346,-2627054.527647,-2633774.534914,-2483114.300145,-2477007.445932,-57437.903576,-2547765.201064,-2524502.399504
63.0,0.24609375,-332009.772302,-17128.588811,-1241772.799703,-23297.133839,-1216195.251488,-1494080.185185,-1706674.242815,-2173742.374628,-3573057.42181,-2627079.203973,-2633688.704215,-2483010.766865,-2479668.734034,-57556.99367,-2547646.647411,-2524398.329782
64.0,0.25,-331976.512906,-17222.466138,-1241804.449773,-23321.273723,-1216185.059093,-1494023.858788,-1707111.979379,-2173748.275488,-3572988.220809,-2627091.005694,-2633620.039656,-2482932.982794,-2481285.569821,-57453.46039,-2547570.472666,-2524309.280432
65.0,0.25390625,-332031.229977,-17659.666259,-1241879.015193,-23546.042865,-1216162.528534,-1493964.850183,-1707546.497291,-2173732.182232,-3572931.357972,-2627067.938694,-2633544.401353,-2482869.146212,-2482377.765462,-57594.544601,-2547492.688595,-2524221.303966
66.0,0.2578125,-332265.655072,-18014.254333,-1242107.539428,-23758.473844,-1216141.607301,-1493921.398392,-1708229.924229,-2173715.016093,-3572880.932436,-2627038.434391,-2633482.174096,-2482817.111351,-2483175.454518,-57999.55821,-2547413.295199,-2524142.983454
67.0,0.26171875,-332457.164819,-17994.942426,-1242356.448454,-23756.864519,-1216155.018348,-1493912.815322,-1708893.502819,-2173730.036465,-3572864.302738,-2627057.746298,-2633469.299492,-2482798.335886,-2483724.234548,-58172.292491,-2547384.327338,-2524109.724058
68.0,0.265625,-332487.742005,-18018.009426,-1242485.730944,-23741.307705,-1216148.044604,-1493881.701694,-1709234.143404,-2173727.354256,-3572831.579784,-2627060.428507,-2633439.795189,-2482762.394281,-2484098.134529,-58049.447304,-2547359.114571,-2524070.563802
69.0,0.26953125,-332541.386192,-18411.221315,-1242581.217597,-23936.572544,-1216149.653929,-1493872.04574,-1709473.396477,-2173735.400884,-3572821.923831,-2627050.772554,-2633412.436654,-2482747.91035,-2484419.463208,-58116.502537,-2547343.557756,-2524046.960359
70.0,0.2734375,-332784.9308,-18809.26118,-1242809.20539,-24169.388314,-1216162.528534,-1493882.774577,-1709956.194157,-2173752.567023,-3572825.678924,-2627044.335251,-2633401.171374,-2482751.665443,-2484703.240955,-58494.157612,-2547325.318733,-2524034.622197
71.0,0.27734375,-333037.594919,-18861.832483,-1243083.863626,-24214.449431,-1216132.48779,-1493845.760089,-1710501.219094,-2173725.208488,-3572779.544923,-2627012.685181,-2633358.792467,-2482705.531443,-2484896.360027,-58746.285289,-2547267.919453,-2523983.660219
72.0,0.28125,-333123.425618,-18837.692599,-1243235.140232,-24179.044268,-1216150.726813,-1493851.660949,-1710746.373027,-2173746.666163,-3572777.399156,-2627035.752182,-2633363.084002,-2482704.458559,-2485028.861168,-58647.579986,-2547275.966081,-2523984.196661
73.0,0.28515625,-333152.393478,-19165.995022,-1243301.659024,-24333.539526,-1216160.919209,-1493857.025368,-1710825.229982,-2173763.832303,-3572781.690691,-2627035.752182,-2633353.428048,-2482707.67721,-2485145.269054,-58643.824893,-2547280.257616,-2523984.196661
74.0,0.2890625,-333374.480411,-19596.221399,-1243490.486561,-24577.084133,-1216138.925092,-1493839.859228,-1711142.803567,-2173748.81193,-3572758.087249,-2626992.30039,-2633310.512699,-2482680.855117,-2485279.37952,-58987.684129,-2547236.269383,-2523949.32794
75.0,0.29296875,-333656.648833,-19719.603028,-1243751.73375,-24664.524158,-1216116.394534,-1493818.937995,-1711592.341851,-2173730.572907,-3572724.291411,-2626960.65032,-2633277.253303,-2482650.814372,-2485357.163591,-59306.330598,-2547191.744708,-2523912.849893
76.0,0.296875,-333807.92544,-19697.07247,-1243915.884962,-24631.264762,-1216091.718208,-1493786.215041,-1711802.627063,-2173709.115232,-3572684.594713,-2626935.437552,-2633243.993907,-2482612.190558,-2485393.641638,-59264.488133,-2547156.339545,-2523877.44473
77.0,0.30078125,-333881.417976,-20021.083357,-1243972.747799,-24779.322717,-1216114.785208,-1493806.063391,-1711781.70583,-2173738.083093,-3572702.297294,-2626944.557064,-2633247.749001,-2482626.138047,-2485430.119685,-59251.613528,-2547176.724336,-2523895.147311
78.0,0.3046875,-334120.134606,-20515.682759,-1244121.342197,-25052.908069,-1216139.997976,-1493834.494809,-1711952.830786,-2173767.587396,-3572723.218527,-2626944.557064,-2633248.821884,-2482649.741489,-2485499.320686,-59580.452392,-2547179.942987,-2523910.704125
79.0,0.30859375,-334438.244633,-20728.113738,-1244357.91306,-25190.773629,-1216151.799697,-1493849.515182,-1712317.611255,-2173781.534884,-3572727.510062,-2626941.874855,-2633248.821884,-2482656.178791,-2485578.17764,-59962.935443,-2547167.604824,-2523911.240567
80.0,0.3125,-334620.634868,-20684.661947,-1244518.84562,-25156.977791,-1216143.753069,-1493838.249903,-1712503.220141,-2173782.071326,-3572708.734597,-2626938.119762,-2633238.093047,-2482635.794,-2485600.708199,-59970.982071,-2547152.584452,-2523897.293079
81.0,0.31640625,-334665.695985,-20915.33195,-1244544.058388,-25255.146653,-1216141.07086,-1493833.421926,-1712422.217419,-2173789.581512,-3572699.615085,-2626931.146017,-2633220.926907,-2482625.601605,-2485595.880222,-59902.853954,-2547150.438684,-2523893.001544
82.0,0.3203125,-334798.733568,-21342.339676,-1244355.767292,-25453.093702,-1215495.194852,-1493198.811197,-1712112.690462,-2173153.361458,-3572059.103496,-2626262.203009,-2632555.738992,-2481980.262039,-2485036.371355,-60116.894259,-2546493.833839,-2523241.224675
83.0,0.32421875,-333683.470927,-20310.225524,-1238601.891828,-24143.639105,-1203764.284106,-1481581.089685,-1704697.454536,-2161499.161899,-3560432.262472,-2614466.382798,-2620828.583339,-2470250.960618,-2472850.021464,-59233.374504,-2534823.541024,-2511582.733581
84.0,0.328125,-335014.383199,-21198.036814,-1242059.796102,-25060.418255,-1211262.668522,-1489117.561474,-1708773.339841,-2168943.902128,-3567937.08419,-2621941.163771,-2628396.168756,-2477833.566407,-2478375.909135,-60137.815492,-2542374.496743,-2519098.284137
85.0,0.33203125,-335889.856325,-22142.710941,-1244536.548202,-25886.53873,-1216194.715046,-1493989.526509,-1711734.498946,-2173854.490978,-3572808.512784,-2626889.303552,-2633296.028769,-2482744.691699,-2483569.73929,-60775.644872,-2547247.534662,-2524009.409429
86.0,0.3359375,-336117.844119,-22730.114785,-1244577.854225,-26196.60213,-1216164.674302,-1493939.100973,-1711758.102388,-2173837.324838,-3572755.405039,-2626843.705993,-2633220.926907,-2482688.365303,-2484150.16939,-61064.787038,-2547172.432801,-2523968.103405
87.0,0.33984375,-336478.333053,-23138.883488,-1244752.197832,-26438.00097,-1216173.793813,-1493938.02809,-1712070.847997,-2173852.345211,-3572746.821969,-2626836.195807,-2633198.396349,-2482677.636466,-2484588.442396,-61544.366067,-2547133.808986,-2523952.546591
88.0,0.34375,-336778.204057,-23205.40228,-1244930.296532,-26474.479017,-1216176.476023,-1493926.762811,-1712363.745256,-2173863.074048,-3572725.364295,-2626839.9509,-2633184.44886,-2482657.251675,-2484863.637073,-61747.141093,-2547104.304684,-2523934.844009
89.0,0.34765625,-336926.798454,-23397.98491,-1244978.039858,-26547.971552,-1216165.747185,-1493905.841578,-1712363.745256,-2173860.92828,-3572699.615085,-2626827.612737,-2633154.944558,-2482630.429581,-2485009.012819,-61717.100348,-2547081.774125,-2523911.777009
90.0,0.3515625,-337142.984527,-23947.837823,-1245024.173859,-26830.676416,-1216161.455651,-1493903.159368,-1712352.479977,-2173865.219815,-3572690.495573,-2626804.009295,-2633123.830929,-2482620.237186,-2485132.394449,-61927.922002,-2547057.634241,-2523895.683753
91.0,0.35546875,-337560.872741,-24469.259318,-1245213.537838,-27128.401652,-1216162.528534,-1493910.669555,-1712623.38312,-2173871.120676,-3572688.886248,-2626780.942295,-2633104.519022,-2482618.62786,-2485261.140497,-62437.541775,-2547027.057055,-2523881.736264
92.0,0.359375,-337985.734699,-24667.206367,-1245432.942561,-27239.981561,-1216134.097115,-1493883.847461,-1712929.691426,-2173847.517234,-3572646.50734,-2626742.854922,-2633064.285882,-2482579.467604,-2485317.466893,-62774.96371,-2546971.803543,-2523839.357357
93.0,0.36328125,-338262.002261,-24902.167905,-1245525.747004,-27332.786004,-1216143.753069,-1493887.066112,-1712943.102472,-2173864.683374,-3572644.361573,-2626747.146457,-2633058.385021,-2482577.321837,-2485326.049963,-62816.806175,-2546970.194217,-2523842.039566
94.0,0.3671875,-338536.660497,-25508.347214,-1245564.907261,-27634.266333,-1216168.429395,-1493914.424648,-1712861.026867,-2173896.869886,-3572666.355689,-2626749.292225,-2633058.921463,-2482597.170186,-2485351.799172,-63029.773596,-2546980.386612,-2523859.205706
95.0,0.37109375,-339002.828479,-26142.957943,-1245734.42289,-27989.390849,-1216144.289511,-1493900.477159,-1713048.78152,-2173879.167304,-3572639.533596,-2626694.575154,-2633011.178137,-2482574.103185,-2485387.740777,-63568.897673,-2546929.961077,-2523826.482752
96.0,0.375,-339487.771927,-26440.683179,-1245951.145405,-28163.198014,-1216117.467417,-1493879.019484,-1713338.99657,-2173859.318955,-3572603.055549,-2626650.586921,-2632968.79923,-2482539.770906,-2485389.886545,-64004.488469,-2546873.634681,-2523791.077589
97.0,0.37890625,-339825.730303,-26661.697228,-1246051.460034,-28252.783805,-1216133.024232,-1493894.576299,-1713363.136454,-2173882.385955,-3572610.029293,-2626661.8522,-2632973.090765,-2482542.453115,-2485354.481382,-64095.147144,-2546876.853332,-2523801.269984
98.0,0.3828125,-340120.77333,-27256.074817,-1246068.089732,-28538.707321,-1216143.753069,-1493904.232252,-1713217.760708,-2173900.624979,-3572615.930154,-2626652.196247,-2632960.752602,-2482548.353976,-2485358.772917,-64275.928053,-2546876.853332,-2523809.316612
99.0,0.38671875,-340603.034568,-27969.006058,-1246198.445105,-28926.018348,-1216143.753069,-1493916.033973,-1713321.293988,-2173907.598723,-3572617.539479,-2626621.61906,-2632936.076276,-2482551.572627,-2485391.495871,-64804.859734,-2546850.031239,-2523801.269984
100.0,0.390625,-341148.059505,-28382.602737,-1246408.730317,-29164.198537,-1216145.362394,-1493927.299252,-1713601.853085,-2173917.254676,-3572611.638619,-2626604.989362,-2632921.592345,-2482548.353976,-2485396.860289,-65333.254973,-2546820.526936,-2523795.369124
101.0,0.39453125,-341561.119743,-28619.173601,-1246529.429737,-29267.731818,-1216153.409022,-1493933.736555,-1713667.835434,-2173932.275049,-3572608.419968,-2626604.989362,-2632918.910136,-2482542.989557,-2485373.793289,-65492.578208,-2546811.407424,-2523797.514891
102.0,0.3984375,-341871.719583,-29179.21891,-1246531.039063,-29535.952751,-1216159.846325,-1493937.491648,-1713505.829991,-2173946.222537,-3572605.737758,-2626591.578316,-2632900.671113,-2482542.453115,-2485340.533893,-65647.609907,-2546803.897238,-2523797.514891
103.0,0.40234375,-342338.96045,-29924.873105,-1246616.33332,-29936.138384,-1216170.575162,-1493961.631532,-1713536.407177,-2173966.607328,-3572619.148805,-2626572.80285,-2632888.33295,-2482556.937046,-2485356.090707,-66141.136425,-2546790.486192,-2523804.488636
104.0,0.40625,-342911.880363,-30422.691157,-1246807.306624,-30220.452573,-1216151.263255,-1493951.975578,-1713796.045041,-2173955.342049,-3572595.008921,-2626528.814617,-2632850.782019,-2482533.333604,-2485378.621266,-66724.785176,-2546736.842005,-2523776.057217
105.0,0.41015625,-343391.995834,-30687.156998,-1246947.854393,-30342.224877,-1216146.435278,-1493946.61116,-1713904.406298,-2173957.487817,-3572575.697014,-2626515.940012,-2632832.006554,-2482514.558138,-2485335.705916,-66963.501807,-2546711.629237,-2523764.255496
106.0,0.4140625,-343764.822932,-31253.639609,-1246958.583231,-30605.081392,-1216141.07086,-1493942.856067,-1713744.546621,-2173963.388677,-3572564.431735,-2626493.945896,-2632805.18446,-2482501.147092,-2485286.353265,-67132.480995,-2546696.072423,-2523756.208868
107.0,0.41796875,-344286.780868,-32100.144875,-1247033.14865,-31046.573048,-1216144.289511,-1493956.803555,-1713719.333854,-2173975.72684,-3572570.869037,-2626464.441593,-2632782.653902,-2482506.51151,-2485302.982962,-67631.371931,-2546674.078306,-2523753.526658
108.0,0.421875,-344115.655913,-31953.696245,-1244910.984625,-30733.290998,-1211601.699782,-1489457.129175,-1711060.191519,-2169466.932948,-3568057.783611,-2621877.863631,-2628215.924289,-2477959.093804,-2480799.017048,-67635.663466,-2542113.785996,-2519228.639511
109.0,0.42578125,-343055.646784,-30652.824718,-1240427.403501,-29482.845006,-1203498.745382,-1481488.285242,-1705250.5261,-2161422.987154,-3560062.654026,-2613711.072649,-2620161.786099,-2469901.200521,-2471248.742491,-66581.018756,-2534113.291992,-2511213.661577
110.0,0.4296875,-346008.759261,-33584.479521,-1246428.042224,-31734.291522,-1215387.370037,-1493337.213199,-1712254.847557,-2173235.437064,-3571890.66075,-2625600.233746,-2632065.967568,-2481838.104944,-2481981.871364,-68728.395549,-2545972.948786,-2523077.073464
111.0,0.43359375,-346751.731247,-34714.762534,-1246864.705904,-32376.948878,-1216148.581046,-1494069.456347,-1712703.8494,-2174009.522678,-3572618.075921,-2626341.059964,-2632766.024204,-2482568.202325,-2483419.535568,-69406.994511,-2546659.594376,-2523825.409868
112.0,0.4375,-347503.822744,-35577.361056,-1247035.294418,-32849.017721,-1216169.502279,-1494083.940278,-1712970.461007,-2174042.782073,-3572619.685247,-2626333.013336,-2632741.88432,-2482568.202325,-2483902.333248,-70188.590311,-2546611.314608,-2523825.409868
113.0,0.44140625,-348238.748102,-36119.167342,-1247232.168583,-33130.649701,-1216130.878464,-1494038.342719,-1713246.192127,-2174015.95998,-3572555.848665,-2626283.660684,-2632673.756203,-2482507.047952,-2484178.600809,-70729.860154,-2546521.728816,-2523768.010589
114.0,0.4453125,-348819.178202,-36757.533164,-1247299.223816,-33428.911379,-1216111.030115,-1494009.9113,-1713223.125127,-2174005.231143,-3572518.834176,-2626250.401288,-2632623.867109,-2482467.351254,-2484324.512997,-71014.174344,-2546470.766839,-2523730.9961
115.0,0.44921875,-349424.82107,-37733.857362,-1247341.602724,-33921.901455,-1216116.394534,-1494018.49437,-1713171.626708,-2174021.324399,-3572518.297734,-2626225.724962,-2632593.826365,-2482467.351254,-2484444.139534,-71503.409326,-2546442.871862,-2523725.095239
116.0,0.453125,-350198.370242,-38662.438233,-1247508.972586,-34424.011043,-1216090.108882,-1494000.255346,-1713404.442478,-2174002.548933,-3572486.111222,-2626162.424822,-2632533.208434,-2482434.6283,-2484555.719442,-72280.713592,-2546366.697117,-2523681.643448
117.0,0.45703125,-350927.931181,-39207.46317,-1247692.972147,-34713.689651,-1216079.916487,-1493995.42737,-1713683.392249,-2174001.47605,-3572461.434896,-2626131.847636,-2632501.021922,-2482409.951974,-2484620.092466,-72864.362343,-2546314.662256,-2523656.43068
118.0,0.4609375,-351460.081513,-39703.135455,-1247740.179031,-34943.28677,-1216090.645324,-1494002.401114,-1713666.226109,-2174025.615934,-3572455.534036,-2626134.529845,-2632489.756643,-2482408.342649,-2484645.841676,-73099.323881,-2546303.933418,-2523659.11289
119.0,0.46484375,-351939.660542,-40521.209302,-1247712.284054,-35349.909705,-1216091.718208,-1494005.619765,-1713537.480061,-2174037.417655,-3572452.851826,-2626113.608612,-2632462.398107,-2482405.660439,-2484685.538374,-73446.401768,-2546283.012185,-2523654.821355
120.0,0.46875,-352583.927224,-41368.25101,-1247807.770706,-35809.640385,-1216109.420789,-1494034.051184,-1713686.6109,-2174061.557539,-3572467.335757,-2626094.296705,-2632449.523503,-2482420.14437,-2484766.541096,-74112.662567,-2546261.018069,-2523661.795099
121.0,0.47265625,-353243.75072,-41870.897039,-1247957.437987,-36087.517272,-1216101.374161,-1494031.905416,-1713958.586926,-2174061.557539,-3572449.096733,-2626069.083937,-2632425.383619,-2482404.587555,-2484844.325166,-74692.556225,-2546214.347626,-2523641.94675
122.0,0.4765625,-353754.97982,-42263.572486,-1248004.644871,-36265.615972,-1216078.843603,-1494007.229091,-1713981.117485,-2174049.219376,-3572413.69157,-2626040.652518,-2632386.223362,-2482367.036625,-2484828.23191,-74915.1796,-2546168.213626,-2523609.223796
123.0,0.48046875,-354208.809639,-43019.955518,-1247963.338848,-36634.687976,-1216072.942742,-1494003.473998,-1713823.940018,-2174053.510911,-3572403.499175,-2626011.148216,-2632353.500408,-2482355.771346,-2484823.940375,-75197.884464,-2546145.146626,-2523598.494959
124.0,0.484375,-354842.347484,-43906.157482,-1248030.930523,-37111.584796,-1216076.697836,-1494019.567254,-1713905.479181,-2174066.385515,-3572408.327151,-2625981.643913,-2632332.042734,-2482360.599322,-2484869.001492,-75830.885867,-2546116.715207,-2523596.349191
125.0,0.48828125,-355540.794795,-44496.779978,-1248178.988478,-37440.960102,-1216097.082626,-1494048.535114,-1714172.090789,-2174093.744051,-3572419.055989,-2625977.88882,-2632332.579176,-2482373.473927,-2484885.63119,-76483.199177,-2546097.403299,-2523602.786494
126.0,0.4921875,-356096.548569,-44872.825727,-1248247.116595,-37617.449476,-1216085.280905,-1494035.124068,-1714242.364674,-2174092.134725,-3572392.770337,-2625959.649796,-2632305.757082,-2482348.797601,-2484874.902353,-76755.175204,-2546058.779485,-2523584.54747
127.0,0.49609375,-356515.509667,-45541.768735,-1248186.498664,-37937.705271,-1216089.035998,-1494038.342719,-1714066.948183,-2174107.691539,-3572390.088128,-2625944.092982,-2632285.908733,-2482342.896741,-2484867.928608,-76980.480788,-2546047.514206,-2523586.693238
128.0,0.5,-357058.925278,-46379.154489,-1248197.227502,-38384.024904,-1216117.467417,-1494076.966533,-1714072.312602,-2174144.706028,-3572418.519547,-2625941.947215,-2632287.518059,-2482371.864602,-2484911.916841,-77521.750632,-2546046.441322,-2523609.223796
129.0,0.50390625,-357670.469006,-46937.054031,-1248300.760782,-38699.452722,-1216103.519929,-1494071.602115,-1714306.737698,-2174135.050074,-3572394.379663,-2625903.3234,-2632252.112896,-2482353.625578,-2484945.176237,-78144.559639,-2545993.870019,-2523582.938145
130.0,0.5078125,-358140.928524,-47182.207964,-1248346.358341,-38817.469933,-1216080.98937,-1494047.462231,-1714396.859932,-2174121.639028,-3572356.29229,-2625878.110633,-2632219.389942,-2482320.902624,-2484937.666051,-78390.786456,-2545950.418228,-2523552.360958
131.0,0.51171875,-358453.13769,-47656.959016,-1248252.481014,-39037.94754,-1216064.896114,-1494031.368975,-1714215.006139,-2174116.811051,-3572332.688848,-2625851.288539,-2632184.52122,-2482294.616973,-2484934.983842,-78500.220597,-2545921.986809,-2523533.049051
132.0,0.515625,-358862.442835,-48383.837746,-1248202.59192,-39421.503475,-1216061.141021,-1494034.051184,-1714155.461091,-2174120.029702,-3572328.933755,-2625820.174911,-2632156.089801,-2482287.643228,-2484991.310238,-78902.015555,-2545893.55539,-2523519.638004
133.0,0.51953125,-359341.485422,-48860.198123,-1248157.530803,-39696.161711,-1215814.377763,-1493798.016762,-1714221.979883,-2173881.849513,-3572080.024729,-2625548.735326,-2631892.160403,-2482038.19776,-2484800.873375,-79447.576934,-2545610.850526,-2523265.901001
134.0,0.5234375,-356345.457595,-45546.06027,-1242264.180453,-37417.893102,-1204773.867699,-1482848.165375,-1707035.268192,-2162918.050637,-3561116.762294,-2614459.409053,-2620848.96813,-2470981.594441,-2473517.891588,-77091.524254,-2534619.156673,-2512287.618195
135.0,0.52734375,-358190.817617,-47390.347408,-1244328.408757,-38535.301511,-1209722.543922,-1487857.459528,-1709171.379706,-2167838.831882,-3566101.380122,-2619377.508089,-2625867.381795,-2476015.56492,-2476412.531902,-78208.396221,-2539648.835617,-2517275.991115
136.0,0.53125,-360677.762112,-50250.655443,-1247592.121076,-40384.416626,-1216062.213905,-1494145.09465,-1713034.834031,-2174144.706028,-3572386.333035,-2625722.006049,-2632174.328825,-2482352.552694,-2482910.452236,-80176.064989,-2545916.62239,-2523587.766121
137.0,0.53515625,-361191.136979,-50870.245799,-1247620.552495,-40738.468258,-1216048.802858,-1494115.053906,-1713245.655685,-2174145.778912,-3572345.563453,-2625695.720398,-2632119.075313,-2482311.246671,-2483559.010453,-80787.072276,-2545835.083227,-2523558.798261
138.0,0.5390625,-361665.888031,-51129.883662,-1247684.389077,-40885.45333,-1216072.942742,-1494123.100534,-1713498.319804,-2174179.574749,-3572341.80836,-2625717.714514,-2632116.929545,-2482309.100903,-2483964.560505,-81157.753606,-2545810.406901,-2523562.553354
139.0,0.54296875,-361981.315849,-51454.430992,-1247633.427099,-41028.146866,-1216069.187649,-1494102.179301,-1713471.497711,-2174184.939168,-3572317.132034,-2625714.495863,-2632092.253219,-2482283.888135,-2484212.396647,-81240.902095,-2545782.511924,-2523538.949911
140.0,0.546875,-362334.831039,-52148.586768,-1247568.517633,-41377.906964,-1216050.412184,-1494079.112301,-1713406.588245,-2174173.137447,-3572288.164173,-2625673.18984,-2632043.437009,-2482254.383833,-2484402.83351,-81530.580703,-2545736.914365,-2523503.544748
141.0,0.55078125,-362886.293278,-52849.179846,-1247648.447472,-41770.045968,-1216069.724091,-1494104.86151,-1713629.748062,-2174199.95954,-3572303.720987,-2625666.752537,-2632036.999707,-2482267.794879,-2484569.66693,-82143.197315,-2545717.602458,-2523508.909167
142.0,0.5546875,-363444.729262,-53207.523013,-1247772.365543,-41973.357436,-1216064.896114,-1494101.106417,-1713921.572437,-2174201.032424,-3572283.872638,-2625649.049955,-2632016.614916,-2482247.410088,-2484668.372234,-82617.411925,-2545672.004899,-2523487.451492
143.0,0.55859375,-363835.795383,-53524.560156,-1247776.657078,-42114.978089,-1216063.286789,-1494091.986906,-1713927.473298,-2174206.396843,-3572268.852266,-2625643.149095,-2632002.130986,-2482233.4626,-2484681.246839,-82750.449508,-2545653.229434,-2523476.186213
144.0,0.5625,-364180.191062,-54184.920095,-1247709.601845,-42441.134744,-1216078.307161,-1494110.762371,-1713803.555227,-2174232.682494,-3572281.726871,-2625642.076211,-2631991.402148,-2482242.582112,-2484716.652002,-82988.093256,-2545654.838759,-2523485.305725
145.0,0.56640625,-364701.076114,-54906.970847,-1247766.464682,-42839.711051,-1216045.047765,-1494088.231813,-1713948.930973,-2174208.006168,-3572246.321708,-2625581.994722,-2631935.612194,-2482209.322716,-2484786.389445,-83564.231821,-2545585.101317,-2523441.317492
146.0,0.5703125,-365259.512098,-55302.328503,-1247884.481893,-43071.990379,-1216038.074021,-1494086.622487,-1714226.271418,-2174207.469726,-3572228.619126,-2625559.464164,-2631915.763845,-2482196.984553,-2484834.669213,-84085.116873,-2545544.868177,-2523424.687794
147.0,0.57421875,-365668.2808,-55561.429925,-1247907.012452,-43188.398264,-1216057.385928,-1494100.569975,-1714259.530814,-2174233.755378,-3572232.374219,-2625573.411652,-2631922.737589,-2482199.666762,-2484816.966631,-84236.39348,-2545543.795293,-2523434.343747
148.0,0.578125,-365997.656107,-56162.781258,-1247834.056358,-43481.831966,-1216047.729975,-1494093.059789,-1714098.598254,-2174233.755378,-3572218.42673,-2625548.735326,-2631894.842612,-2482186.792158,-2484824.476817,-84422.002366,-2545521.801176,-2523422.542026
149.0,0.58203125,-366483.135996,-56902.534592,-1247857.123358,-43885.772691,-1216057.385928,-1494114.517464,-1714159.216185,-2174250.921518,-3572227.0098,-2625532.64207,-2631882.504449,-2482196.984553,-2484877.584562,-84943.42386,-2545503.562153,-2523424.151352
150.0,0.5859375,-367022.260073,-57330.615202,-1247963.338848,-44139.509695,-1216045.584207,-1494109.689487,-1714412.953188,-2174247.702867,-3572207.161451,-2625505.283535,-2631855.145914,-2482179.818413,-2484885.63119,-85493.276774,-2545457.964594,-2523403.230119
151.0,0.58984375,-367425.127915,-57528.562251,-1247999.280453,-44227.486161,-1216060.068138,-1494120.418325,-1714486.445723,-2174268.624099,-3572207.697893,-2625516.012372,-2631861.046775,-2482181.964181,-2484890.459167,-85668.156823,-2545453.673059,-2523412.349631
152.0,0.59375,-367712.124313,-58027.453187,-1247913.986196,-44463.520582,-1216048.802858,-1494109.153045,-1714309.419907,-2174266.478332,-3572192.141079,-2625490.799605,-2631829.933146,-2482162.652273,-2484890.459167,-85785.10115,-2545430.069617,-2523396.256375
153.0,0.59765625,-368139.132039,-58746.285289,-1247901.648033,-44849.758726,-1216044.511324,-1494115.053906,-1714304.055489,-2174269.696983,-3572188.922428,-2625459.685976,-2631804.183937,-2482157.824297,-2484923.182121,-86234.639434,-2545402.17464,-2523384.454654
154.0,0.6015625,-368672.891697,-59229.082969,-1248000.889778,-45136.218683,-1216035.928254,-1494116.12679,-1714542.235678,-2174268.087657,-3572173.902055,-2625431.790999,-2631781.653378,-2482147.095459,-2484938.738935,-86809.168674,-2545360.332174,-2523368.361398
155.0,0.60546875,-369105.263842,-59422.202041,-1248057.752616,-45234.923987,-1216027.345184,-1494107.54372,-1714658.107121,-2174266.478332,-3572151.371497,-2625421.062162,-2631766.096564,-2482126.710668,-2484924.255004,-87040.91156,-2545329.754988,-2523353.341026
156.0,0.609375,-369397.624659,-59853.501302,-1247982.114313,-45436.089687,-1216022.517207,-1494100.033534,-1714488.055049,-2174269.696983,-3572137.96045,-2625404.968906,-2631744.102448,-2482110.617412,-2484895.823585,-87130.497352,-2545313.12529,-2523343.14863
157.0,0.61328125,-369781.717036,-60555.167264,-1247941.881173,-45802.479482,-1215994.085788,-1494080.185185,-1714407.588769,-2174248.77575,-3572109.529031,-2625351.861161,-2631694.749796,-2482083.795319,-2484935.520284,-87506.006659,-2545265.918406,-2523308.279909
158.0,0.6171875,-370275.779995,-61064.250596,-1248015.373709,-46102.886927,-1216024.126533,-1494118.808999,-1714600.707841,-2174283.644472,-3572132.05959,-2625359.371347,-2631705.478633,-2482110.080971,-2484968.243238,-88068.734177,-2545263.236196,-2523328.128258
159.0,0.62109375,-370208.724762,-60725.755778,-1247474.640307,-45903.330553,-1214866.484984,-1492966.531869,-1714020.277741,-2173137.804644,-3570966.907855,-2624194.756054,-2630537.108247,-2480935.273282,-2483832.595805,-87984.512804,-2544085.746299,-2522167.8045
160.0,0.625,-365432.246379,-55793.709254,-1240864.603623,-42798.941469,-1202978.396771,-1481193.778657,-1705803.061223,-2161337.156455,-3559179.670713,-2612247.659236,-2618664.040406,-2469047.185069,-2471329.208771,-84217.081573,-2532291.535412,-2510364.474102
161.0,0.62890625,-369442.685776,-60138.888376,-1245247.333675,-45411.949803,-1212316.240348,-1490549.324816,-1710846.687656,-2170614.382102,-3568521.805825,-2621572.091767,-2628064.647682,-2478477.296648,-2478872.117862,-87151.418585,-2541671.221455,-2519712.510075
162.0,0.6328125,-371230.110077,-62059.350259,-1247150.092977,-46640.93812,-1216052.02151,-1494230.388907,-1713329.877058,-2174333.533565,-3572203.406358,-2625320.747533,-2631767.169448,-2482190.010809,-2483149.705309,-88734.994976,-2545328.682104,-2523422.005584
163.0,0.63671875,-371258.005054,-61847.455722,-1247069.626697,-46556.716747,-1216074.015626,-1494222.342279,-1713523.532572,-2174365.720077,-3572188.385986,-2625363.662882,-2631768.778773,-2482173.381111,-2483813.82034,-88806.341744,-2545305.615104,-2523428.442887
164.0,0.640625,-371036.454563,-61572.797486,-1246858.268602,-46400.075722,-1216058.995254,-1494176.208279,-1713452.185804,-2174356.064124,-3572146.007078,-2625370.100185,-2631740.347354,-2482125.101343,-2484244.583159,-88502.179206,-2545277.183685,-2523393.574166
165.0,0.64453125,-370728.000489,-61541.683858,-1246597.021412,-46385.591791,-1216044.511324,-1494145.631092,-1713317.002453,-2174350.163263,-3572120.257869,-2625366.345092,-2631715.671029,-2482095.59704,-2484591.661047,-88293.503319,-2545258.944661,-2523361.924095
166.0,0.6484375,-370508.595766,-61410.792042,-1246455.40076,-46360.915465,-1216050.948626,-1494144.021767,-1713460.768874,-2174358.746333,-3572114.89345,-2625378.683255,-2631715.134587,-2482090.232621,-2484913.526167,-88332.663576,-2545249.82515,-2523350.658816
167.0,0.65234375,-370207.651878,-60837.872128,-1246348.112386,-46102.350486,-1216055.776603,-1494131.147162,-1713702.167714,-2174360.8921,-3572098.800194,-2625401.213813,-2631721.035447,-2482071.457156,-2485154.388565,-88182.996295,-2545242.314964,-2523332.956235
168.0,0.65625,-369661.554058,-60104.019654,-1246114.760174,-45717.721667,-1216055.240161,-1494105.397952,-1713670.517644,-2174359.819217,-3572080.024729,-2625433.936767,-2631730.691401,-2482050.535923,-2485331.414381,-87618.659451,-2545257.871778,-2523320.08163
169.0,0.66015625,-368982.418654,-59633.023695,-1245797.723031,-45472.567734,-1216051.485068,-1494084.476719,-1713482.226548,-2174357.673449,-3572068.223008,-2625448.957139,-2631731.227843,-2482035.515551,-2485489.664732,-87080.071816,-2545272.89215,-2523309.352792
170.0,0.6640625,-368383.213089,-59141.106503,-1245580.464075,-45260.136755,-1216071.869859,-1494097.351324,-1713550.354666,-2174378.05824,-3572081.634054,-2625482.752977,-2631758.049936,-2482048.926598,-2485695.658409,-86813.460209,-2545301.323569,-2523320.08163
171.0,0.66796875,-367723.926034,-58214.134957,-1245416.312863,-44827.76461,-1216080.452929,-1494089.841138,-1713772.441598,-2174381.813333,-3572077.878961,-2625518.694582,-2631784.872029,-2482042.489295,-2485891.996132,-86444.388204,-2545319.562592,-2523315.790095
172.0,0.671875,-366816.802837,-57013.578059,-1245142.191069,-44212.465788,-1216091.181766,-1494077.502975,-1713761.176319,-2174389.859961,-3572074.123868,-2625572.338769,-2631820.813634,-2482035.515551,-2486038.444762,-85622.559264,-2545360.868616,-2523319.545188
173.0,0.67578125,-365712.269033,-56025.988582,-1244744.687646,-43701.236689,-1216098.15551,-1494062.482603,-1713534.26141,-2174395.22438,-3572073.050985,-2625614.717676,-2631842.271309,-2482031.760458,-2486183.284066,-84722.409811,-2545409.148384,-2523321.154513
174.0,0.6796875,-364648.504811,-55071.658501,-1244426.577619,-43244.72466,-1216118.003859,-1494065.164812,-1713517.631712,-2174407.026101,-3572084.316264,-2625659.778793,-2631878.749356,-2482041.952853,-2486389.814185,-84076.533804,-2545457.428152,-2523331.346909
175.0,0.68359375,-363544.507449,-53708.023275,-1244183.569453,-42595.09356,-1216127.659813,-1494058.191068,-1713711.287226,-2174409.171868,-3572088.607799,-2625710.204328,-2631918.446054,-2482041.416412,-2486572.20442,-83407.054354,-2545493.369757,-2523332.419793
176.0,0.6875,-362196.965479,-51967.269417,-1243855.803472,-41710.500921,-1216165.747185,-1494065.701254,-1713724.16183,-2174439.749055,-3572111.138357,-2625807.836748,-2631994.084358,-2482062.337644,-2486727.772561,-82280.526433,-2545579.736898,-2523364.069863
177.0,0.69140625,-360591.931414,-50371.891304,-1243382.125304,-40887.599097,-1216182.376883,-1494051.217324,-1713471.497711,-2174450.477892,-3572115.966334,-2625877.037749,-2632042.900567,-2482061.264761,-2486891.38733,-80974.826929,-2545659.130294,-2523375.335142
178.0,0.6953125,-358980.996487,-48854.833705,-1242952.435369,-40143.017786,-1216192.032837,-1494040.488486,-1713374.401733,-2174449.405008,-3572124.549404,-2625931.218377,-2632086.352359,-2482065.019854,-2487076.459775,-79885.313497,-2545725.112644,-2523379.090235
179.0,0.69921875,-357350.213212,-46974.068519,-1242619.841411,-39233.748821,-1216189.887069,-1494017.421486,-1713527.824107,-2174435.45752,-3572115.966334,-2625985.399006,-2632126.585499,-2482053.218133,-2487162.826915,-78847.834927,-2545772.85597,-2523372.652933
180.0,0.703125,-355512.363376,-44660.931189,-1242238.431244,-38069.66997,-1216224.755791,-1494013.129951,-1713580.931852,-2174455.842311,-3572135.278241,-2626092.150938,-2632211.343314,-2482065.019854,-2487198.76852,-77390.858816,-2545869.415506,-2523397.329259
181.0,0.70703125,-353464.76477,-42493.706047,-1241730.957238,-36953.870887,-1216247.822791,-1494001.32823,-1713358.844919,-2174466.571148,-3572148.689288,-2626185.491822,-2632282.690082,-2482074.139365,-2487205.742264,-75712.868656,-2545976.703879,-2523418.250491
182.0,0.7109375,-351509.434165,-40616.159513,-1241290.002023,-36013.488294,-1216263.379605,-1493994.354486,-1713237.609057,-2174469.253358,-3572166.391869,-2626251.474172,-2632340.625804,-2482086.477528,-2487213.252451,-74312.755384,-2546068.435439,-2523430.052212
183.0,0.71484375,-349798.184609,-38702.134931,-1241045.384532,-35084.907423,-1216283.764396,-1493995.963811,-1713433.94678,-2174470.862683,-3572183.558009,-2626316.92008,-2632408.753921,-2482105.252994,-2487226.663497,-73216.268208,-2546147.292393,-2523443.999701
184.0,0.71875,-348247.331172,-36685.649954,-1240904.836763,-34074.250945,-1216300.930536,-1493995.42737,-1713642.622667,-2174472.472009,-3572195.35973,-2626389.876174,-2632479.564247,-2482111.690296,-2487233.1008,-72006.591798,-2546228.295115,-2523453.655655
185.0,0.72265625,-345864.992841,-34130.577341,-1238224.236753,-32478.336391,-1210596.944165,-1488319.872417,-1709964.240785,-2168794.234847,-3566535.898034,-2620714.321222,-2626818.493225,-2476394.82932,-2481428.7998,-70006.200076,-2540623.550489,-2517780.24647
186.0,0.7265625,-343640.368419,-31956.914897,-1235000.757575,-31006.339908,-1204615.080907,-1482467.828091,-1705313.289799,-2162842.948776,-3560672.588429,-2614699.198568,-2620940.699689,-2470487.531482,-2474209.901596,-68198.927426,-2534827.832559,-2511893.333422
187.0,0.73046875,-345020.633342,-33270.661029,-1240077.106962,-32317.403831,-1216007.496835,-1493811.427809,-1712366.427465,-2174147.388237,-3572017.26103,-2626114.145054,-2632393.733548,-2481940.565341,-2485264.89559,-69448.836976,-2546227.758673,-2523259.463699
188.0,0.734375,-344428.937963,-32359.246297,-1240409.700919,-31895.224082,-1216406.073142,-1494172.989627,-1712928.618542,-2174544.355219,-3572384.187267,-2626547.053641,-2632794.455623,-2482306.418694,-2486155.925531,-69048.651343,-2546616.679027,-2523651.066262
189.0,0.73828125,-343683.283768,-31473.044333,-1240482.657013,-31419.936588,-1216397.490072,-1494135.975139,-1712991.38224,-2174535.235707,-3572358.9745,-2626570.120641,-2632792.846297,-2482274.768624,-2486428.437999,-68324.991265,-2546627.407864,-2523637.655215
190.0,0.7421875,-342983.763574,-30994.001745,-1240526.108804,-31166.199585,-1216417.338421,-1494141.875999,-1712973.679659,-2174553.474731,-3572372.385546,-2626600.697827,-2632813.231088,-2482286.570345,-2486612.43756,-67783.184979,-2546669.786772,-2523651.602704
191.0,0.74609375,-342480.044661,-30553.582973,-1240698.306644,-30969.32542,-1216410.901119,-1494133.292929,-1713225.807336,-2174542.745893,-3572361.120267,-2626596.406292,-2632808.939553,-2482276.914391,-2486730.991212,-67576.654861,-2546671.396097,-2523634.973006
192.0,0.75,-342007.975818,-29787.543987,-1240927.903763,-30600.253415,-1216431.28591,-1494144.558209,-1713570.739457,-2174556.693382,-3572372.921988,-2626629.665688,-2632840.053182,-2482286.033903,-2486778.734538,-67288.585578,-2546699.291074,-2523643.019634
193.0,0.75390625,-341439.347439,-28997.901559,-1241059.868462,-30174.318573,-1216446.842724,-1494148.313302,-1713651.205737,-2174574.395963,-3572381.505058,-2626668.289503,-2632873.849019,-2482291.398322,-2486781.95319,-66684.552036,-2546742.742865,-2523653.212029
194.0,0.7578125,-340912.025084,-28668.526252,-1241140.871184,-29986.563919,-1216428.6037,-1494126.319185,-1713571.275898,-2174557.766266,-3572364.338918,-2626655.95134,-2632858.292205,-2482275.305066,-2486784.635399,-66217.847612,-2546757.226796,-2523635.509448
195.0,0.76171875,-340666.87115,-28566.065856,-1241365.103884,-29954.377407,-1216474.201259,-1494179.42693,-1713741.32797,-2174601.754499,-3572411.545803,-2626689.747177,-2632902.81688,-2482324.657717,-2486801.801539,-66179.223797,-2546810.870983,-2523677.888355
196.0,0.765625,-340583.186219,-28272.632155,-1241691.796981,-29829.922894,-1216480.638561,-1494192.301535,-1714087.869416,-2174604.97315,-3572419.055989,-2626691.356503,-2632916.764369,-2482330.558578,-2486766.396375,-66224.284914,-2546817.308285,-2523677.888355
197.0,0.76953125,-340468.38766,-27909.461011,-1241953.580612,-29625.002101,-1216452.207142,-1494159.578581,-1714215.542581,-2174574.932405,-3572384.187267,-2626669.362386,-2632896.91602,-2482294.616973,-2486641.40542,-65971.084353,-2546801.751471,-2523647.311169
198.0,0.7734375,-340354.661984,-27987.245081,-1242128.997103,-29635.730938,-1216475.274143,-1494184.791349,-1714113.082184,-2174602.827382,-3572408.863593,-2626682.773433,-2632916.227927,-2482319.829741,-2486503.003419,-65775.283071,-2546840.911727,-2523674.669704
199.0,0.77734375,-340482.335148,-28350.416225,-1242404.191781,-29830.995778,-1216494.049608,-1494217.514302,-1714216.079022,-2174624.285057,-3572437.295012,-2626676.872573,-2632924.810997,-2482348.261159,-2486443.994813,-65990.39626,-2546858.077867,-2523692.908727
200.0,0.78125,-340779.523942,-28532.270018,-1242787.747715,-29951.158756,-1216492.440282,-1494229.852465,-1714533.652608,-2174624.821499,-3572434.076361,-2626655.414898,-2632914.618601,-2482348.261159,-2486347.435277,-66350.885195,-2546841.448169,-2523687.544309
201.0,0.78515625,-341047.744876,-28550.509042,-1243128.388301,-29943.64857,-1216500.48691,-1494241.117745,-1714686.002098,-2174637.159662,-3572427.102617,-2626654.878456,-2632918.373694,-2482348.797601,-2486210.106159,-66413.112451,-2546844.66682,-2523693.445169
202.0,0.7890625,-341284.852181,-28953.913326,-1243353.693885,-30116.919293,-1216493.513166,-1494241.117745,-1714579.250166,-2174639.841871,-3572428.711942,-2626632.884339,-2632900.134671,-2482342.360299,-2486077.605018,-66451.199824,-2546841.448169,-2523689.690076
203.0,0.79296875,-341738.145559,-29708.15059,-1243649.809796,-30504.230321,-1216486.00298,-1494248.091489,-1714603.39005,-2174637.159662,-3572429.248384,-2626588.896106,-2632868.484601,-2482339.67809,-2485984.800575,-66868.015154,-2546818.381169,-2523680.570564
204.0,0.796875,-342394.213962,-30348.66218,-1244066.088684,-30859.354837,-1216475.274143,-1494258.283884,-1714883.412705,-2174635.013894,-3572412.618686,-2626543.298548,-2632840.589624,-2482335.922997,-2485888.777481,-67514.964046,-2546780.293796,-2523667.69596
205.0,0.80078125,-343038.480644,-30761.722417,-1244464.12855,-31059.447653,-1216444.696956,-1494236.82621,-1715067.948707,-2174611.946894,-3572370.776221,-2626494.482338,-2632794.992065,-2482301.054275,-2485733.20934,-67908.712376,-2546729.331819,-2523634.436564
206.0,0.8046875,-343617.301418,-31465.534146,-1244728.59439,-31382.922099,-1216436.650328,-1494236.82621,-1714961.733217,-2174613.019778,-3572375.604197,-2626461.759384,-2632766.560646,-2482290.325438,-2485566.375919,-68178.542635,-2546707.337702,-2523627.46282
207.0,0.80859375,-344359.20052,-32562.021322,-1245022.028091,-31934.384338,-1216440.405421,-1494258.820326,-1714913.989891,-2174626.967266,-3572382.0415,-2626422.062686,-2632738.665669,-2482299.981391,-2485404.370475,-68772.920224,-2546685.880028,-2523632.290796
208.0,0.8125,-345329.623858,-33621.49401,-1245446.89005,-32502.476275,-1216485.466538,-1494326.948443,-1715146.805662,-2174683.830104,-3572422.27464,-2626421.526244,-2632752.613157,-2482350.406927,-2485318.539777,-69671.460351,-2546688.562237,-2523672.523936
209.0,0.81640625,-346332.770149,-34429.911903,-1245884.626613,-32915.536513,-1216485.466538,-1494341.432374,-1715371.574804,-2174693.486058,-3572420.665314,-2626388.266848,-2632727.40039,-2482347.724718,-2485216.615822,-70387.073801,-2546651.547748,-2523668.232401
210.0,0.8203125,-347191.613578,-35359.029217,-1245950.072521,-33336.106936,-1215920.05681,-1493787.824367,-1714966.024752,-2174141.487377,-3571850.964052,-2625787.451957,-2632133.022801,-2481776.950571,-2484538.553302,-70850.559574,-2546059.315927,-2523103.895557
211.0,0.82421875,-346089.225541,-34562.949486,-1240254.66922,-32389.823483,-1204347.396415,-1482332.108299,-1707096.959006,-2162658.412773,-3560381.836937,-2614120.914235,-2620533.003871,-2470210.727478,-2472451.981598,-69945.582145,-2534531.716649,-2511610.628558
212.0,0.828125,-348706.52541,-37297.193682,-1243771.045658,-34086.052666,-1211325.968662,-1489384.173081,-1710923.398843,-2169595.678997,-3567384.012626,-2621023.311737,-2627551.809257,-2477290.687238,-2477252.599866,-71996.935844,-2541529.600803,-2518612.804247
213.0,0.83203125,-351052.385694,-39555.0775,-1246789.604043,-35499.576986,-1216473.128375,-1494497.536957,-1714393.64128,-2174724.063244,-3572476.99171,-2626149.550217,-2632648.006993,-2482423.899463,-2482540.84379,-73826.739052,-2546567.326375,-2523733.141867
214.0,0.8359375,-352217.537429,-40770.65477,-1247073.918232,-36087.517272,-1216482.247887,-1494490.026771,-1714385.594652,-2174757.859082,-3572458.216245,-2626133.456961,-2632600.263667,-2482400.296021,-2483070.848354,-74547.180479,-2546503.489793,-2523732.068984
215.0,0.83984375,-353384.834931,-42363.350673,-1247308.343328,-36878.232584,-1216462.93598,-1494471.251305,-1714291.717326,-2174758.931966,-3572421.738198,-2626069.620379,-2632518.188061,-2482362.74509,-2483332.631985,-75406.023908,-2546419.26842,-2523698.273146
216.0,0.84375,-354723.793831,-43986.623762,-1247658.639867,-37726.883617,-1216455.962235,-1494478.22505,-1714469.816025,-2174766.978594,-3572401.353407,-2626007.929564,-2632452.742154,-2482348.261159,-2483497.319638,-76595.851969,-2546336.656372,-2523672.523936
217.0,0.84765625,-356061.679847,-45242.434173,-1248038.977151,-38386.170672,-1216442.551189,-1494472.860631,-1714778.806541,-2174768.587919,-3572376.677081,-2625951.066727,-2632394.806432,-2482321.975508,-2483651.814896,-77695.021355,-2546248.679906,-2523639.264541
218.0,0.8515625,-357233.268885,-46366.816326,-1248295.396363,-38933.877818,-1216438.796096,-1494473.397073,-1714825.476983,-2174780.926082,-3572352.537197,-2625917.807331,-2632350.281757,-2482303.736484,-2483699.02178,-78412.244131,-2546194.499277,-2523624.244168
219.0,0.85546875,-358325.464526,-47828.620413,-1248450.964505,-39656.465013,-1216428.067258,-1494469.105538,-1714683.319889,-2174786.826943,-3572331.079523,-2625863.626702,-2632289.663826,-2482283.351694,-2483699.02178,-79167.554279,-2546136.563556,-2523602.786494
220.0,0.859375,-359552.307076,-49383.228944,-1248684.853159,-40464.882906,-1216415.192654,-1494472.324189,-1714777.197215,-2174786.826943,-3572316.05915,-2625794.962143,-2632224.75436,-2482263.503344,-2483733.890502,-80245.26599,-2546058.779485,-2523573.818633
221.0,0.86328125,-360796.852207,-50582.176516,-1248971.313116,-41102.175844,-1216401.245165,-1494472.860631,-1715042.199497,-2174785.754059,-3572292.99215,-2625741.854398,-2632171.646615,-2482243.654995,-2483785.388921,-81311.17598,-2545981.531856,-2523546.460098
222.0,0.8671875,-361869.735941,-51533.824388,-1249160.677095,-41570.489594,-1216399.099398,-1494474.469957,-1715091.015707,-2174799.701548,-3572267.24294,-2625716.105189,-2632136.241452,-2482227.561739,-2483784.316037,-81977.97322,-2545933.78853,-2523537.340586
223.0,0.87109375,-362796.707487,-52764.958473,-1249212.711956,-42173.450252,-1216393.198537,-1494471.787747,-1714911.844124,-2174810.430385,-3572256.514103,-2625673.726281,-2632085.279475,-2482211.468483,-2483843.324643,-82581.47032,-2545884.97232,-2523525.002423
224.0,0.875,-363827.748755,-54139.858978,-1249321.073213,-42891.20947,-1216371.740862,-1494463.741119,-1714913.989891,-2174802.920199,-3572231.837777,-2625605.061722,-2632021.979335,-2482189.474367,-2483903.406132,-83482.156215,-2545814.161994,-2523493.888795
225.0,0.87890625,-364900.096047,-55209.52406,-1249508.291424,-43470.566686,-1216355.111164,-1494458.913143,-1715136.076824,-2174796.482896,-3572202.869916,-2625547.126001,-2631967.262264,-2482165.334483,-2483935.592644,-84461.162622,-2545734.232156,-2523461.702283
226.0,0.8828125,-365826.531151,-55955.714697,-1249630.063728,-43845.539551,-1216343.845885,-1494448.720747,-1715217.079546,-2174795.410013,-3572172.29273,-2625513.866605,-2631925.419799,-2482135.83018,-2483984.408854,-85060.368187,-2545676.832876,-2523436.489515
227.0,0.88671875,-366592.033695,-56935.793988,-1249609.142495,-44318.681278,-1216329.898397,-1494436.382584,-1715025.5698,-2174797.55578,-3572151.907939,-2625475.779232,-2631878.212914,-2482111.690296,-2483996.747017,-85515.270891,-2545632.308201,-2523416.641166
228.0,0.890625,-368375.702903,-59134.669201,-1249738.424985,-45488.124548,-1216347.064536,-1494479.297933,-1715138.222592,-2174838.325362,-3572161.027451,-2625413.551976,-2631823.495844,-2482120.273366,-2484153.924484,-87148.736375,-2545551.841921,-2523413.958956
229.0,0.89453125,-369211.479331,-59761.233301,-1249829.083661,-45809.989668,-1216327.216187,-1494460.522468,-1715263.749989,-2174829.742292,-3572125.085846,-2625377.610371,-2631781.653378,-2482087.550412,-2484202.740693,-87723.265615,-2545491.760432,-2523384.991096
230.0,0.8984375,-369877.203688,-60546.584194,-1249780.267451,-46186.571859,-1216330.434839,-1494464.277561,-1715096.380126,-2174845.835548,-3572111.138357,-2625363.12644,-2631758.049936,-2482081.11311,-2484218.833949,-88075.17148,-2545468.15699,-2523383.38177
231.0,0.90234375,-370576.187441,-61615.712835,-1249726.086822,-46736.424772,-1216330.97128,-1494471.251305,-1714973.534939,-2174856.564385,-3572113.284125,-2625325.039068,-2631719.962564,-2482080.576668,-2484375.474975,-88656.138021,-2545430.606059,-2523375.335142
232.0,0.90625,-371376.558706,-62519.080939,-1249778.121683,-47235.85215,-1216293.42035,-1494445.502096,-1715129.639522,-2174828.669408,-3572063.395031,-2625252.082974,-2631652.370888,-2482037.661319,-2484504.221023,-89460.800822,-2545342.093151,-2523325.98249
233.0,0.91015625,-372068.568715,-63002.951503,-1249821.573475,-47496.562898,-1216296.102559,-1494450.330073,-1715277.697477,-2174840.471129,-3572052.129752,-2625240.817695,-2631635.74119,-2482023.71383,-2484632.967071,-89990.268945,-2545306.687988,-2523316.862979
234.0,0.9140625,-372536.346023,-63489.504276,-1249715.894427,-47721.868482,-1216312.195815,-1494464.814003,-1715131.785289,-2174868.366107,-3572056.421287,-2625249.400765,-2631630.376772,-2482027.468923,-2484790.144538,-90184.997342,-2545302.932895,-2523326.518932
235.0,0.91796875,-372539.564674,-63821.561792,-1249009.93693,-47871.535763,-1215250.57736,-1493411.778618,-1714283.670698,-2173823.37735,-3570993.729948,-2624160.423775,-2630540.326898,-2480955.658073,-2483964.024063,-90216.110971,-2544220.929649,-2522264.364036
236.0,0.921875,-368167.563458,-59332.61625,-1242370.932385,-45273.547801,-1203449.929172,-1481725.392547,-1706389.928626,-2162106.950534,-3559292.323505,-2612284.137283,-2618740.751593,-2469158.764977,-2471689.161264,-87152.491468,-2532486.26381,-2510540.963476
237.0,0.92578125,-372164.055367,-63173.003575,-1246740.251391,-47474.568781,-1212433.721117,-1490732.251493,-1711486.126362,-2171030.660991,-3568272.360357,-2621263.637693,-2627789.989446,-2478222.486761,-2479140.875237,-90062.688597,-2541495.804965,-2519526.901189
238.0,0.9296875,-373860.820992,-64872.987851,-1248595.267367,-48464.304026,-1216337.408583,-1494568.347283,-1713813.747622,-2174919.864526,-3572117.575659,-2625200.048113,-2631669.000586,-2482093.451273,-2483935.592644,-91209.601308,-2545339.410942,-2523405.912328
239.0,0.93359375,-373735.830037,-65062.35183,-1248248.189479,-48552.816934,-1216315.414466,-1494514.166655,-1713602.925969,-2174911.281456,-3572062.858589,-2625187.70995,-2631609.991981,-2482037.661319,-2484808.920003,-91122.697726,-2545282.011662,-2523370.507165
240.0,0.9375,-373639.270501,-65142.81811,-1248006.790639,-48630.064563,-1216323.997536,-1494505.047143,-1713684.465132,-2174926.83827,-3572048.9111,-2625199.511671,-2631593.898725,-2482023.177388,-2485458.551104,-91255.198867,-2545257.871778,-2523357.63256
241.0,0.94140625,-373398.408103,-64688.451849,-1247791.67745,-48435.872607,-1216333.65349,-1494494.318306,-1713901.187647,-2174937.567107,-3572036.036496,-2625230.625299,-2631596.044492,-2482007.084132,-2486077.605018,-91206.919099,-2545244.460731,-2523345.294398
242.0,0.9453125,-372826.561073,-63890.762793,-1247439.235144,-48022.275927,-1216318.096676,-1494447.647863,-1713875.974879,-2174924.692503,-3571999.022007,-2625254.765183,-2631588.534306,-2481963.632341,-2486637.650327,-90645.800906,-2545235.877661,-2523311.49856
243.0,0.94921875,-371975.22783,-63219.674017,-1246941.417091,-47668.760737,-1216326.679746,-1494428.335956,-1713652.27862,-2174934.884898,-3571986.683844,-2625293.92544,-2631598.19026,-2481952.367062,-2487001.894355,-89954.327339,-2545264.845522,-2523306.134141
244.0,0.953125,-371042.891865,-62426.276496,-1246484.905062,-47299.152291,-1216356.184048,-1494433.700375,-1713644.231992,-2174961.706991,-3572008.141519,-2625345.960301,-2631630.376772,-2481963.095899,-2487118.30224,-89430.223635,-2545306.687988,-2523318.472304
245.0,0.95703125,-369899.197805,-61028.308991,-1246045.559173,-46633.427934,-1216349.210304,-1494398.831653,-1713816.429832,-2174947.759503,-3571982.392309,-2625382.438348,-2631646.470028,-2481933.055154,-2487080.214868,-88741.432278,-2545316.880383,-2523293.795978
246.0,0.9609375,-368336.006205,-59079.95213,-1245461.910422,-45643.692689,-1216358.866258,-1494365.572258,-1713779.951785,-2174949.368828,-3571962.007518,-2625461.295302,-2631692.604028,-2481911.59748,-2487036.763076,-87459.336216,-2545373.743221,-2523290.040885
247.0,0.96484375,-366350.634855,-57101.018083,-1244685.679041,-44629.281119,-1216378.178165,-1494340.35949,-1713479.007897,-2174961.17055,-3571964.153286,-2625551.417536,-2631746.784657,-2481906.233061,-2486999.212146,-85882.197128,-2545459.037478,-2523300.233281
248.0,0.96875,-364153.368968,-54957.932825,-1243902.473915,-43571.417757,-1216387.834118,-1494311.928071,-1713329.340616,-2174959.561224,-3571962.007518,-2625634.029583,-2631797.746634,-2481901.941526,-2486957.906122,-84372.649714,-2545536.821549,-2523302.91549
249.0,0.97265625,-361667.497357,-52143.758791,-1243133.75272,-42192.762159,-1216432.358793,-1494309.245862,-1713402.29671,-2174985.310434,-3571985.074518,-2625764.384957,-2631893.769728,-2481919.644108,-2486941.276424,-82703.779066,-2545649.474341,-2523330.274025
250.0,0.9765625,-358677.906832,-48589.294981,-1242230.921058,-40400.509882,-1216466.691073,-1494280.814443,-1713349.188965,-2174998.72148,-3571993.121146,-2625915.125121,-2632003.203869,-2481921.253433,-2486902.65261,-80392.251061,-2545785.194133,-2523354.413909
251.0,0.98046875,-355201.763535,-44893.210518,-1241133.89744,-38515.989604,-1216476.347026,-1494221.269396,-1713020.350101,-2174987.992643,-3571984.538076,-2626050.308472,-2632093.326103,-2481899.795759,-2486837.743144,-77673.56368,-2545921.450367,-2523357.63256
252.0,0.984375,-351702.553237,-41332.845847,-1240109.829916,-36732.856838,-1216495.122492,-1494184.254907,-1712839.569192,-2174979.409573,-3571995.803356,-2626175.835869,-2632189.349197,-2481897.649991,-2486795.900678,-75140.485184,-2546061.461694,-2523361.924095
253.0,0.98828125,-348644.298153,-37926.976434,-1239404.408861,-35057.012446,-1216538.037841,-1494188.546442,-1713050.390846,-2174993.357062,-3572032.817844,-2626311.555661,-2632313.267268,-2481929.300061,-2486805.556632,-73037.096624,-2546209.51965,-2523388.209747
254.0,0.9921875,-346209.924961,-34926.12063,-1239011.733414,-33547.465032,-1216577.198097,-1494199.275279,-1713358.308477,-2175005.695224,-3572067.686566,-2626431.182197,-2632433.966688,-2481961.486573,-2486829.696516,-71146.675485,-2546348.458093,-2523412.886073
255.0,0.99609375,-344438.057475,-32965.425606,-1238825.051644,-32530.907694,-1216609.384609,-1494223.951605,-1713487.054525,-2175017.496946,-3572114.357008,-2626512.721361,-2632532.671992,-2482005.474806,-2486876.9034,-69625.862792,-2546479.886351,-2523442.390375
0.0,1.0,-6266.177448,-1199476.504263,-16955.318088,-1170342.346471,-1432028.345111,-1627050.712949,-2057909.555186,0.0,-2675775.787327,-2682112.775101,-2503857.970698,-2506530.524079,-51018.303754,-2557431.347064,-2524286.749874,0.0
1.0,1.00390625,-313727.833477,-5680.382929,-1191079.043279,-16483.249245,-1172397.455263,-1435999.624252,-1639034.824256,-2067850.359422,-3581915.686359,-2667009.254337,-2673478.206811,-2497946.917766,-2499386.191295,-50284.45128,-2552838.331799,-2521231.177
2.0,1.0078125,-313849.069339,-5535.543625,-1192587.517808,-16614.141061,-1175606.986953,-1439149.074453,-1641283.052121,-2071054.526693,-3585074.256071,-2670247.753888,-2676673.791012,-2501130.163804,-2503310.799993,-50287.13349,-2556010.849,-2524434.807829
3.0,1.01171875,-313733.197896,-5729.735581,-1192508.660854,-16687.097155,-1175604.304743,-1439121.715918,-1641149.478096,-2071063.646205,-3585050.116187,-2670241.853028,-2676641.068058,-2501104.951037,-2503834.367255,-50212.031628,-2555985.099791,-2524426.761201
4.0,1.015625,-313767.530175,-5970.597979,-1192550.50332,-16834.618668,-1175605.914069,-1439114.742174,-1641306.119121,-2071064.719089,-3585039.38735,-2670230.051306,-2676612.100197,-2501091.003548,-2504121.900096,-50435.191445,-2555954.522604,-2524409.05862
5.0,1.01953125,-313820.63792,-5844.53414,-1192659.401019,-16825.499156,-1175595.721673,-1439094.893824,-1641617.255404,-2071060.963996,-3585019.539001,-2670226.296213,-2676591.178965,-2501065.79078,-2504331.648866,-50558.036632,-2555927.164069,-2524385.991619
6.0,1.0234375,-313762.702198,-5589.187812,-1192699.097717,-16694.070899,-1175591.96658,-1439077.191243,-1641703.622544,-2071066.864856,-3584998.617768,-2670233.269958,-2676585.278104,-2501045.405989,-2504500.628054,-50334.876816,-2555925.018302,-2524373.117015
7.0,1.02734375,-313670.434197,-5716.860976,-1192654.573042,-16682.80562,-1175594.112348,-1439072.899708,-1641589.896868,-2071075.984368,-3584991.644024,-2670225.759772,-2676574.012825,-2501039.505129,-2504590.750288,-50198.08414,-2555929.846278,-2524367.216154
8.0,1.03125,-313720.859733,-5985.081909,-1192699.097717,-16821.744063,-1175600.013208,-1439083.628545,-1641692.357265,-2071082.42167,-3584997.544884,-2670211.812283,-2676557.919569,-2501042.72378,-2504667.997917,-50384.765909,-2555919.653883,-2524359.169526
9.0,1.03515625,-313795.425152,-5932.510606,-1192819.260695,-16833.545784,-1175595.721673,-1439078.264127,-1641991.691827,-2071080.812345,-3584987.888931,-2670205.911422,-2676547.727173,-2501031.458501,-2504713.595475,-50559.645958,-2555902.487743,-2524344.685596
10.0,1.0390625,-313764.311524,-5818.784931,-1192882.560835,-16716.601457,-1175580.701301,-1439057.879336,-1642105.417503,-2071072.765717,-3584960.530396,-2670200.547004,-2676538.07122,-2501008.391501,-2504779.577825,-50370.281979,-2555893.368231,-2524326.446572
11.0,1.04296875,-313669.897755,-5905.152071,-1192841.791253,-16664.566596,-1175601.086092,-1439075.045475,-1641965.942617,-2071095.296275,-3584969.113465,-2670207.520748,-2676545.581406,-2501018.047454,-2504824.638942,-50187.355302,-2555918.580999,-2524340.930503
12.0,1.046875,-313695.646965,-5937.338583,-1192862.712486,-16807.260133,-1175619.325116,-1439097.039592,-1641990.618943,-2071113.535299,-3584985.206721,-2670202.156329,-2676540.753429,-2501028.776291,-2504834.294895,-50326.830188,-2555925.018302,-2524347.904247
13.0,1.05078125,-313775.576803,-5945.921653,-1192973.755953,-16849.102598,-1175612.887813,-1439092.211615,-1642257.230551,-2071107.634438,-3584973.941442,-2670185.526632,-2676523.050847,-2501017.511012,-2504819.274523,-50542.479818,-2555902.487743,-2524329.665223
14.0,1.0546875,-313771.82171,-5662.143905,-1193054.222233,-16743.423551,-1175579.628417,-1439055.733568,-1642406.36139,-2071083.494554,-3584934.244744,-2670162.996073,-2676498.910963,-2500979.960082,-2504863.262756,-50396.56763,-2555876.202092,-2524296.405828
15.0,1.05859375,-313681.699476,-5649.805742,-1193022.035721,-16672.076782,-1175591.96658,-1439064.316638,-1642265.813621,-2071104.415787,-3584947.655791,-2670181.235097,-2676507.494033,-2500986.397384,-2504914.761175,-49920.743694,-2555891.758906,-2524312.499084
16.0,1.0625,-313692.964756,-5931.437723,-1193015.061976,-16789.557551,-1175597.867441,-1439077.727685,-1642218.606736,-2071114.07174,-3584958.384628,-2670169.969817,-2676495.15587,-2500991.225361,-2504904.032338,-50026.422742,-2555865.473254,-2524312.499084
17.0,1.06640625,-313773.431036,-6019.414189,-1193110.548629,-16865.195854,-1175607.523395,-1439093.284499,-1642434.792809,-2071125.873461,-3584966.431256,-2670166.751166,-2676494.082987,-2500997.126221,-2504894.912826,-50512.439074,-2555853.671533,-2524313.571967
18.0,1.0703125,-313790.060734,-5753.339023,-1193205.498839,-16779.365156,-1175599.476767,-1439079.873452,-1642609.136416,-2071123.191252,-3584950.338,-2670166.751166,-2676490.327894,-2500979.960082,-2504902.423013,-50450.211817,-2555844.01558,-2524303.379572
19.0,1.07421875,-313691.891872,-5664.826115,-1193187.259816,-16684.414945,-1175598.940325,-1439075.581917,-1642491.655647,-2071133.383648,-3584944.973581,-2670171.042701,-2676490.864335,-2500977.277872,-2504923.344245,-50210.422303,-2555858.49951,-2524307.671107
20.0,1.078125,-313652.731616,-5922.318211,-1193159.90128,-16761.662574,-1175593.039464,-1439072.899708,-1642380.075738,-2071130.164996,-3584938.536279,-2670145.293492,-2676467.797335,-2500970.84057,-2504933.536641,-50233.489303,-2555853.671533,-2524296.405828
21.0,1.08203125,-313743.926733,-6073.594817,-1193241.440444,-16870.560273,-1175605.914069,-1439094.357383,-1642542.617624,-2071144.112485,-3584948.728674,-2670139.929073,-2676465.115126,-2500980.496523,-2504902.959454,-50478.643236,-2555851.525766,-2524300.160921
22.0,1.0859375,-313786.842082,-5849.362117,-1193336.927096,-16793.849086,-1175591.430139,-1439077.191243,-1642734.127371,-2071134.456531,-3584926.734558,-2670131.346003,-2676455.459172,-2500959.575291,-2504922.807803,-50483.471213,-2555832.7503,-2524284.067665
23.0,1.08984375,-313704.766477,-5688.429557,-1193327.807585,-16683.342061,-1175611.814929,-1439093.820941,-1642639.17716,-2071170.398136,-3584943.900698,-2670161.923189,-2676482.281266,-2500978.887198,-2504952.312106,-50237.244396,-2555871.374115,-2524311.4262
24.0,1.09375,-313647.367197,-5912.662257,-1193279.527817,-16743.959992,-1175622.007325,-1439105.08622,-1642476.098833,-2071184.345625,-3584951.947326,-2670152.803678,-2676473.161754,-2500985.3245,-2504950.702781,-50201.302791,-2555882.102952,-2524316.790619
25.0,1.09765625,-313405.968357,-6002.784491,-1190473.936853,-16439.261012,-1169520.517531,-1433054.021961,-1638034.360174,-2065117.18811,-3578892.299997,-2664013.226511,-2670348.604959,-2494862.913473,-2498682.379566,-50104.743255,-2549792.414879,-2518234.076289
26.0,1.1015625,-313221.968796,-5936.265699,-1187819.086053,-15944.125169,-1164790.173148,-1428444.91344,-1633809.880472,-2060414.738705,-3574245.640546,-2659233.529476,-2665681.024275,-2490182.994626,-2492196.797394,-49754.983158,-2545165.603777,-2513569.177815
27.0,1.10546875,-313831.366757,-5752.802581,-1192728.065578,-16643.108921,-1175441.226416,-1439031.593684,-1641208.486701,-2071001.95539,-3584834.466557,-2669910.868396,-2676365.87338,-2500876.426801,-2502606.988264,-50198.620581,-2555798.418021,-2524198.236966
28.0,1.109375,-313723.541942,-5796.790814,-1192748.450368,-16708.018387,-1175663.313349,-1439219.348338,-1641208.486701,-2071235.307602,-3585026.512745,-2670133.49177,-2676546.65429,-2501063.645013,-2503540.397112,-50146.049279,-2555985.099791,-2524417.105248
29.0,1.11328125,-313749.291152,-6042.481189,-1192770.980927,-16858.22211,-1175657.412488,-1439201.645756,-1641342.597168,-2071234.234719,-3585007.200838,-2670117.934956,-2676509.103359,-2501036.286478,-2503936.827652,-50369.209095,-2555943.257325,-2524395.647573
30.0,1.1171875,-313804.008222,-5931.437723,-1192870.759114,-16835.15511,-1175659.558256,-1439191.989802,-1641655.879218,-2071240.135579,-3584992.180466,-2670124.372259,-2676497.83808,-2501022.875431,-2504201.293492,-50509.756864,-2555920.726767,-2524381.163643
31.0,1.12109375,-313753.582687,-5665.362557,-1192913.674463,-16705.87262,-1175633.809046,-1439152.829546,-1641764.776917,-2071224.578765,-3584950.338,-2670110.961212,-2676471.015986,-2500979.960082,-2504369.199797,-50293.570792,-2555894.441115,-2524346.294921
32.0,1.125,-313673.116407,-5776.942465,-1192867.004021,-16697.28955,-1175624.689534,-1439136.199848,-1641666.071614,-2071218.677904,-3584931.026093,-2670090.576421,-2676445.266777,-2500958.502407,-2504482.925473,-50150.340813,-2555885.858045,-2524326.446572
33.0,1.12890625,-313715.495314,-6041.944747,-1192899.726975,-16848.029715,-1175631.663279,-1439145.855802,-1641765.313359,-2071228.333858,-3584934.781186,-2670079.847584,-2676434.001498,-2500965.476151,-2504568.756171,-50327.36663,-2555879.420743,-2524321.618595
34.0,1.1328125,-313785.769199,-5994.201421,-1193013.989093,-16868.414506,-1175647.220093,-1439160.339732,-1642058.74706,-2071243.890672,-3584944.973581,-2670092.722189,-2676442.048126,-2500973.522779,-2504635.811405,-50509.756864,-2555878.347859,-2524325.91013
35.0,1.13671875,-313756.264896,-5698.085511,-1193079.971442,-16751.470179,-1175637.027697,-1439141.564267,-1642188.565992,-2071244.963556,-3584926.198116,-2670096.477282,-2676435.610823,-2500954.210872,-2504686.773382,-50293.570792,-2555875.129208,-2524313.571967
36.0,1.140625,-313645.221429,-5734.027116,-1193043.493395,-16682.80562,-1175630.053953,-1439131.908313,-1642056.064851,-2071247.645765,-3584925.125232,-2670093.25863,-2676423.27266,-2500943.482035,-2504753.292174,-49802.726484,-2555865.473254,-2524308.207549
37.0,1.14453125,-313659.168918,-6010.294677,-1193056.904442,-16812.624551,-1175613.424255,-1439122.788802,-1642065.184363,-2071231.552509,-3584911.714186,-2670059.462793,-2676388.403939,-2500924.170127,-2504787.624453,-50100.45172,-2555813.974835,-2524281.921897
38.0,1.1484375,-313746.608942,-6031.752352,-1193161.510606,-16864.659412,-1175638.100581,-1439148.001569,-1642310.338296,-2071259.447486,-3584932.098977,-2670077.165374,-2676406.10652,-2500946.164244,-2504814.446546,-50491.517841,-2555820.412138,-2524300.160921
39.0,1.15234375,-313744.463175,-5881.548629,-1193241.440444,-16757.371039,-1175649.902302,-1439153.365988,-1642456.786925,-2071276.077184,-3584932.635418,-2670098.623049,-2676421.663335,-2500948.846453,-2504849.315268,-50367.59977,-2555835.43251,-2524307.671107
40.0,1.15625,-313663.460453,-5946.994537,-1193204.962397,-16676.368317,-1175659.558256,-1439159.266848,-1642321.067133,-2071287.342463,-3584931.562535,-2670099.159491,-2676421.663335,-2500946.700686,-2504861.116989,-50145.512837,-2555852.062208,-2524311.962642
41.0,1.16015625,-313674.725732,-5913.735141,-1193190.478467,-16774.537179,-1175681.01593,-1439185.016058,-1642255.621225,-2071309.33658,-3584948.192233,-2670096.477282,-2676421.126893,-2500962.2575,-2504879.356012,-50214.713837,-2555864.936813,-2524324.300805
42.0,1.1640625,-313754.65557,-5978.108165,-1193283.28291,-16842.128854,-1175669.214209,-1439180.188081,-1642468.588646,-2071299.680626,-3584936.390512,-2670069.655188,-2676395.914125,-2500946.164244,-2504873.455152,-50450.748259,-2555836.505394,-2524301.770246
43.0,1.16796875,-313770.748826,-5701.840604,-1193371.795818,-16741.814225,-1175662.240465,-1439168.922802,-1642654.733974,-2071300.217068,-3584919.760814,-2670071.800956,-2676395.377683,-2500933.289639,-2504885.793315,-50391.203212,-2555833.286742,-2524294.796502
44.0,1.171875,-313674.18929,-5581.141184,-1193354.629678,-16650.619108,-1175669.750651,-1439169.459244,-1642538.862531,-2071317.383208,-3584917.615046,-2670083.066235,-2676405.570079,-2500936.50829,-2504901.886571,-50144.976395,-2555854.744417,-2524306.061781
45.0,1.17578125,-313638.247685,-5823.076465,-1193323.51605,-16724.111643,-1175683.161698,-1439188.771151,-1642408.507157,-2071335.622231,-3584931.562535,-2670078.7747,-2676402.351427,-2500949.919337,-2504908.323873,-50155.16879,-2555866.546138,-2524316.790619
46.0,1.1796875,-313719.786849,-5972.743746,-1193394.862818,-16826.035598,-1175678.870163,-1439189.844035,-1642569.439717,-2071329.184929,-3584929.416767,-2670057.317025,-2676384.112404,-2500942.945593,-2504900.277245,-50396.56763,-2555849.379998,-2524300.697363
47.0,1.18359375,-313760.556431,-5739.927976,-1193490.34947,-16765.417667,-1175669.214209,-1439179.115198,-1642773.824069,-2071325.429836,-3584911.177744,-2670050.343281,-2676377.13866,-2500925.779453,-2504906.178106,-50411.051561,-2555835.43251,-2524289.968525
48.0,1.1875,-313684.381686,-5551.100439,-1193490.34947,-16628.088549,-1175666.532,-1439171.06857,-1642696.039998,-2071335.622231,-3584903.667558,-2670059.462793,-2676380.357311,-2500920.415034,-2504918.516269,-50128.883139,-2555850.989324,-2524293.187176
49.0,1.19140625,-313626.982406,-5756.021232,-1193440.996819,-16677.441201,-1175682.088814,-1439189.307593,-1642528.670136,-2071357.079906,-3584924.052349,-2670064.827211,-2676382.503078,-2500932.753197,-2504922.271362,-49824.184158,-2555858.49951,-2524307.134665
50.0,1.1953125,-313695.646965,-5956.114048,-1193482.302842,-16796.531295,-1175651.511628,-1439167.313476,-1642611.282183,-2071329.184929,-3584900.448906,-2670019.766095,-2676338.514845,-2500902.176011,-2504883.647547,-50232.952861,-2555796.272254,-2524271.19306
51.0,1.19921875,-313218.750145,-5632.103161,-1189090.98972,-16038.002496,-1166352.828306,-1429945.341342,-1635771.111938,-2062085.75512,-3575658.628423,-2660687.823378,-2667027.493361,-2491576.670596,-2495213.210012,-49844.032507,-2546530.848328,-2515010.597111
52.0,1.203125,-313278.295193,-5618.155672,-1189237.974791,-15937.687866,-1167762.597533,-1431437.186174,-1635770.039054,-2063489.623486,-3577116.677417,-2662064.86965,-2668520.411077,-2493059.932358,-2494780.301425,-49532.896225,-2548046.296602,-2516469.718989
53.0,1.20703125,-313729.442803,-5655.706603,-1192945.324534,-16594.829153,-1175727.149931,-1439335.756223,-1641252.474934,-2071406.969,-3585030.267838,-2670044.442421,-2676484.963475,-2501045.405989,-2502996.445059,-50022.667649,-2555974.370953,-2524412.277271
54.0,1.2109375,-313740.17164,-5818.248489,-1192942.642324,-16741.277783,-1175709.983791,-1439295.523083,-1641329.186121,-2071400.531697,-3584986.816047,-2670019.229653,-2676424.345544,-2500998.199105,-2503589.213322,-50237.244396,-2555908.388604,-2524384.918736
55.0,1.21484375,-313786.842082,-5707.205022,-1193026.863697,-16721.965876,-1175696.572744,-1439264.945896,-1641624.76559,-2071393.021511,-3584953.020209,-2670009.573699,-2676395.377683,-2500962.2575,-2503953.993792,-50380.474374,-2555863.327487,-2524358.096642
56.0,1.21875,-313733.734338,-5418.599298,-1193062.805302,-16579.272339,-1175701.400721,-1439252.607733,-1641727.225986,-2071405.359674,-3584939.072721,-2670029.95849,-2676398.059892,-2500947.77357,-2504225.433376,-50164.824744,-2555864.400371,-2524354.341549
57.0,1.22265625,-313648.440081,-5504.429997,-1193015.061976,-16561.569758,-1175712.666,-1439253.680617,-1641619.401171,-2071421.45293,-3584937.463395,-2670034.250025,-2676389.476823,-2500945.627802,-2504387.975262,-50007.647277,-2555874.056324,-2524353.268665
58.0,1.2265625,-313682.235918,-5769.968721,-1193043.493395,-16700.508201,-1175699.254954,-1439240.806012,-1641710.596289,-2071408.578325,-3584921.370139,-2670003.136397,-2676353.535217,-2500926.852337,-2504497.945845,-50172.33493,-2555845.624905,-2524323.764363
59.0,1.23046875,-313747.681826,-5725.980488,-1193155.073304,-16730.548946,-1175694.426977,-1439238.123803,-1642019.050362,-2071405.359674,-3584911.714186,-2669994.553327,-2676340.660613,-2500914.514174,-2504561.245985,-50357.943816,-2555825.776556,-2524306.061781
60.0,1.234375,-313718.713965,-5412.161995,-1193222.128537,-16624.869898,-1175712.129559,-1439247.243315,-1642166.035434,-2071434.863977,-3584919.760814,-2670024.594071,-2676366.946264,-2500924.706569,-2504652.977544,-50177.699349,-2555851.525766,-2524322.155037
61.0,1.23828125,-313610.352708,-5424.500158,-1193187.259816,-16496.12385,-1175728.222815,-1439258.508594,-1642048.018223,-2071462.222512,-3584928.880325,-2670038.54156,-2676378.747985,-2500938.117616,-2504711.449708,-49974.387881,-2555879.957185,-2524339.321177
62.0,1.2421875,-313630.737499,-5699.158394,-1193197.452211,-16634.525852,-1175751.289815,-1439283.721362,-1642049.627548,-2071484.75307,-3584949.801558,-2670039.614444,-2676378.747985,-2500952.065104,-2504762.411685,-50085.431348,-2555890.14958,-2524348.977131
63.0,1.24609375,-313714.42243,-5752.266139,-1193299.376166,-16683.878503,-1175744.316071,-1439282.648478,-1642312.484063,-2071479.388652,-3584939.072721,-2670024.594071,-2676363.727613,-2500942.409151,-2504786.015127,-50303.226746,-2555868.691906,-2524332.883875
64.0,1.25,-313711.203779,-5719.543185,-1193382.524655,-16556.741781,-1175716.957535,-1439247.779757,-1642489.509879,-2071454.175884,-3584897.230255,-2670002.063513,-2676336.90552,-2500902.176011,-2504813.373663,-50171.798488,-2555839.187603,-2524299.624479
65.0,1.25390625,-313608.743383,-5469.024833,-1193348.728818,-16488.077222,-1175715.884652,-1439241.878896,-1642363.446041,-2071459.540303,-3584896.693813,-2670007.427932,-2676330.468217,-2500894.665825,-2504824.638942,-49662.178715,-2555840.260487,-2524298.015153
66.0,1.2578125,-313599.623871,-5536.616509,-1193335.854213,-16581.954549,-1175760.945768,-1439292.304431,-1642278.688226,-2071506.747187,-3584945.510023,-2670037.468676,-2676359.97252,-2500937.044732,-2504879.356012,-49737.280576,-2555853.135091,-2524338.248293
67.0,1.26171875,-313678.480825,-5629.420952,-1193423.830679,-16652.764875,-1175750.753373,-1439287.476455,-1642482.536135,-2071498.164117,-3584933.708302,-2670014.401676,-2676335.832636,-2500922.560802,-2504877.746687,-50234.562187,-2555816.657044,-2524317.32706
68.0,1.265625,-313692.964756,-5349.398297,-1193516.635122,-16564.788409,-1175743.243187,-1439277.284059,-1642672.972998,-2071498.700559,-3584918.68793,-2670015.47456,-2676334.759752,-2500909.149755,-2504884.720431,-50195.938372,-2555809.6833,-2524309.280432
69.0,1.26953125,-313599.087429,-5204.558993,-1193503.224075,-16436.042361,-1175727.149931,-1439255.826385,-1642565.684624,-2071490.117489,-3584894.548046,-2670003.136397,-2676322.421589,-2500887.155639,-2504887.939082,-49942.201369,-2555808.073975,-2524295.332944
70.0,1.2734375,-313568.510243,-5440.056973,-1193469.964679,-16512.753548,-1175746.99828,-1439282.112036,-1642421.381762,-2071518.012466,-3584915.469279,-2670005.818606,-2676327.786008,-2500907.54043,-2504897.058594,-49933.618299,-2555833.823184,-2524313.035525
71.0,1.27734375,-313645.221429,-5598.843765,-1193542.384332,-16609.313084,-1175748.071164,-1439286.403571,-1642561.929531,-2071519.08535,-3584916.005721,-2669989.72535,-2676311.692752,-2500904.85822,-2504880.965338,-50170.189163,-2555816.657044,-2524303.916014
72.0,1.28125,-313679.553709,-5365.491553,-1193643.235402,-16543.330734,-1175747.534722,-1439283.18492,-1642758.803696,-2071522.840443,-3584907.959093,-2669991.871118,-2676312.765636,-2500898.420918,-2504899.740803,-50194.329047,-2555813.438393,-2524300.160921
73.0,1.28515625,-313598.550987,-5151.98769,-1193645.917612,-16405.465174,-1175752.89914,-1439284.794245,-1642687.456928,-2071541.615908,-3584909.031976,-2670007.427932,-2676329.395333,-2500902.176011,-2504929.781548,-49935.227625,-2555837.578277,-2524311.962642
74.0,1.2890625,-313536.860172,-5345.106762,-1193596.028518,-16447.30764,-1175757.727117,-1439291.231548,-1642513.113321,-2071551.271862,-3584910.641302,-2669995.626211,-2676318.130054,-2500900.566685,-2504915.297617,-49868.172391,-2555845.624905,-2524312.499084
75.0,1.29296875,-313611.425592,-5557.0013,-1193646.454054,-16567.470618,-1175744.852512,-1439284.794245,-1642603.235555,-2071538.397257,-3584897.230255,-2669963.97614,-2676284.870659,-2500886.082755,-2504891.694175,-50088.113557,-2555819.339254,-2524291.041409
76.0,1.296875,-313582.457731,-5514.622392,-1192944.788092,-16412.975361,-1174021.264794,-1437573.54469,-1641546.445077,-2069826.074818,-3583176.324746,-2668235.560445,-2674553.772754,-2499149.620432,-2503130.555526,-50102.597487,-2554089.850675,-2522567.990132
77.0,1.30078125,-312923.170677,-5128.92069,-1187355.063838,-15397.490906,-1162867.565497,-1426541.081255,-1632754.162878,-2058743.722289,-3572114.89345,-2657031.972054,-2663415.630271,-2487984.655855,-2490909.336914,-49044.734126,-2543033.783797,-2511488.856255
78.0,1.3046875,-313483.752428,-5157.352109,-1191823.088148,-16137.244241,-1173122.724667,-1436794.094657,-1639311.091818,-2068934.508435,-3582362.542434,-2667276.938829,-2673742.136209,-2498335.301678,-2499904.93058,-49270.576152,-2553307.181991,-2521746.161192
79.0,1.30859375,-313684.918128,-5404.651809,-1193107.329977,-16500.415385,-1175795.278048,-1439424.269131,-1641268.56819,-2071596.869421,-3584999.15421,-2669953.783745,-2676377.675101,-2500989.616035,-2503237.307458,-49948.10223,-2555907.852162,-2524405.303527
80.0,1.3125,-313727.833477,-5311.847366,-1193181.895397,-16488.077222,-1175788.840746,-1439394.228386,-1641533.034031,-2071596.869421,-3584968.040582,-2669953.247303,-2676347.097915,-2500951.528663,-2503736.734836,-50141.757744,-2555860.108836,-2524384.382294
81.0,1.31640625,-313672.579965,-5014.658572,-1193218.909886,-16345.383685,-1175811.371304,-1439395.30127,-1641647.296148,-2071629.592375,-3584969.649907,-2669997.771978,-2676368.55559,-2500955.283756,-2504083.276282,-49937.909834,-2555875.66565,-2524401.548433
82.0,1.3203125,-313561.536498,-5091.906201,-1193171.16656,-16314.806499,-1175804.39756,-1439377.598688,-1641544.29931,-2071630.665258,-3584953.020209,-2669988.116025,-2676344.415706,-2500933.826081,-2504289.806401,-49771.076414,-2555867.619022,-2524383.845852
83.0,1.32421875,-313587.285708,-5367.63732,-1193195.306444,-16465.546663,-1175814.589955,-1439385.645316,-1641621.546939,-2071643.003421,-3584957.311744,-2669977.923629,-2676329.395333,-2500933.826081,-2504442.692333,-49927.717439,-2555859.572394,-2524376.872108
84.0,1.328125,-313655.413825,-5345.106762,-1193307.422794,-16504.70692,-1175838.193397,-1439408.175875,-1641930.537454,-2071668.216189,-3584969.649907,-2669995.626211,-2676341.733496,-2500948.310011,-2504522.622171,-50125.664488,-2555863.327487,-2524384.382294
85.0,1.33203125,-313633.419708,-5037.18913,-1193385.743306,-16385.616825,-1175814.589955,-1439376.525805,-1642107.026828,-2071654.805142,-3584938.536279,-2669987.579583,-2676325.64024,-2500917.732825,-2504615.963056,-49966.341253,-2555846.161347,-2524359.169526
86.0,1.3359375,-313529.886428,-5037.725572,-1193356.239004,-16293.885266,-1175792.595839,-1439351.849479,-1642010.467292,-2071643.539863,-3584911.714186,-2669965.585466,-2676298.281705,-2500893.592941,-2504678.726754,-49758.738251,-2555836.505394,-2524337.711851
87.0,1.33984375,-313549.734777,-5317.211785,-1193363.212748,-16420.485547,-1175802.251792,-1439365.260525,-1642009.93085,-2071652.122933,-3584918.68793,-2669951.101536,-2676285.943542,-2500896.811592,-2504723.787871,-49860.662205,-2555836.505394,-2524335.566084
88.0,1.34375,-313638.247685,-5374.074623,-1193468.355354,-16480.030594,-1175799.569583,-1439365.796967,-1642260.985644,-2071652.122933,-3584913.323511,-2669936.081163,-2676273.605379,-2500890.910732,-2504735.05315,-50088.113557,-2555818.26637,-2524322.691479
89.0,1.34765625,-313642.002778,-5275.369319,-1193555.258936,-16365.768476,-1175778.111908,-1439340.047758,-1642447.667414,-2071634.956793,-3584880.600557,-2669921.597233,-2676255.366356,-2500859.260662,-2504750.609964,-49990.481137,-2555795.19937,-2524293.723618
90.0,1.3515625,-313545.443242,-5223.334458,-1193526.827517,-16268.672498,-1175778.64835,-1439337.365548,-1642340.915482,-2071640.321212,-3584870.944604,-2669921.060791,-2676248.929053,-2500851.750475,-2504784.405802,-49751.764506,-2555804.855323,-2524292.650735
91.0,1.35546875,-313526.131335,-5204.558993,-1193509.124936,-16384.0075,-1175801.178908,-1439360.432549,-1642258.303435,-2071665.53398,-3584888.647185,-2669917.84214,-2676250.538379,-2500867.30729,-2504795.134639,-49793.07053,-2555821.485021,-2524306.061781
92.0,1.359375,-313602.842522,-5313.993134,-1193592.273425,-16478.95771,-1175826.391676,-1439389.936851,-1642451.958949,-2071691.283189,-3584912.787069,-2669930.180303,-2676265.022309,-2500889.837848,-2504775.822732,-50033.932928,-2555834.896068,-2524323.764363
93.0,1.36328125,-313626.445964,-5050.063735,-1193689.905845,-16414.584686,-1175805.470443,-1439366.333409,-1642656.879742,-2071675.726375,-3584882.746325,-2669914.087047,-2676247.319728,-2500864.088638,-2504788.697337,-50007.647277,-2555811.292626,-2524300.160921
94.0,1.3671875,-313545.979684,-4897.177803,-1193682.932101,-16275.109801,-1175829.073886,-1439385.645316,-1642567.29395,-2071710.058655,-3584902.058232,-2669945.200675,-2676271.996054,-2500883.400546,-2504843.414407,-49601.560784,-2555844.01558,-2524325.91013
95.0,1.37109375,-313512.183846,-5139.113085,-1193649.672705,-16339.482825,-1175857.505305,-1439416.222503,-1642426.209739,-2071744.390934,-3584937.463395,-2669965.585466,-2676286.479984,-2500909.686197,-2504851.461035,-49400.395083,-2555851.525766,-2524353.805107
96.0,1.375,-313583.530615,-5327.940622,-1193719.410148,-16461.79157,-1175875.744328,-1439441.971712,-1642569.976159,-2071764.775725,-3584957.311744,-2669968.267675,-2676291.844403,-2500926.852337,-2504855.216128,-49952.930206,-2555841.869812,-2524364.533945
97.0,1.37890625,-313628.591732,-5120.33762,-1193818.651893,-16408.683826,-1175850.53156,-1439416.758945,-1642797.427511,-2071744.927376,-3584926.198116,-2669946.810001,-2676267.704519,-2500894.129383,-2504884.183989,-50043.05244,-2555810.756184,-2524333.420316
98.0,1.3828125,-313556.708521,-4904.687989,-1193828.844288,-16268.672498,-1175828.537444,-1439388.327526,-1642758.803696,-2071734.73498,-3584900.985348,-2669936.081163,-2676254.293472,-2500869.453057,-2504889.548408,-49795.216298,-2555805.928207,-2524317.863502
99.0,1.38671875,-313496.09059,-5100.489271,-1193782.710288,-16297.640359,-1175836.04763,-1439394.764828,-1642591.970276,-2071744.927376,-3584903.667558,-2669923.743,-2676243.564635,-2500870.525941,-2504883.647547,-49721.18732,-2555812.36551,-2524319.472828
100.0,1.390625,-313582.994173,-5333.305041,-1193834.208707,-16438.72457,-1175852.677328,-1439418.36827,-1642681.019626,-2071756.729097,-3584914.396395,-2669914.623489,-2676239.809542,-2500880.718336,-2504878.81957,-49944.883578,-2555811.292626,-2524321.618595
101.0,1.39453125,-313643.612104,-5213.678505,-1193933.450453,-16413.511802,-1175859.651072,-1439427.487782,-1642910.616745,-2071768.530818,-3584917.078604,-2669922.670117,-2676246.783286,-2500883.400546,-2504872.91871,-50056.463487,-2555811.292626,-2524325.91013
102.0,1.3984375,-313239.671378,-5056.501038,-1190695.487344,-15794.457888,-1168942.233198,-1432559.42256,-1637789.742683,-2064898.319828,-3578038.284545,-2662991.304754,-2669321.855226,-2493940.769904,-2497796.177601,-49446.529084,-2548931.962124,-2517439.069443
103.0,1.40234375,-313004.173399,-4911.661734,-1188555.084295,-15469.374117,-1165690.322601,-1429421.77408,-1634252.981454,-2061667.330464,-3574866.840227,-2659678.776226,-2666125.198141,-2490747.33147,-2492741.285889,-48855.370147,-2545787.876342,-2514251.531869
104.0,1.40625,-313681.699476,-5226.553109,-1193259.679468,-16378.643081,-1175792.595839,-1439470.939573,-1641316.311516,-2071706.840003,-3584921.370139,-2669786.413883,-2676240.882425,-2500891.447174,-2502705.693567,-49785.560344,-2555840.260487,-2524328.055898
105.0,1.41015625,-313730.515686,-5158.961434,-1193375.550911,-16381.861732,-1175883.790956,-1439531.021062,-1641645.150381,-2071806.081749,-3584979.842303,-2669885.655628,-2676298.281705,-2500946.700686,-2503476.024088,-50025.349858,-2555879.420743,-2524411.204387
106.0,1.4140625,-313675.798616,-4866.600617,-1193404.518772,-16234.876661,-1175873.598561,-1439494.006573,-1641769.068452,-2071806.618191,-3584945.510023,-2669895.848023,-2676277.360472,-2500911.831964,-2503904.64114,-49840.277414,-2555854.207975,-2524394.574689
107.0,1.41796875,-313559.927173,-4937.947385,-1193348.192376,-16231.658009,-1175877.890095,-1439482.741294,-1641673.045358,-2071819.492795,-3584937.463395,-2669898.530233,-2676263.949426,-2500900.566685,-2504166.961213,-49672.37111,-2555852.59865,-2524388.673829
108.0,1.421875,-313566.900917,-5230.844644,-1193364.822074,-16390.444802,-1175863.942607,-1439466.648038,-1641756.730289,-2071809.3004,-3584922.443023,-2669869.02593,-2676228.007821,-2500881.79122,-2504321.992913,-49823.111275,-2555824.703672,-2524360.24241
109.0,1.42578125,-313637.174801,-5235.136179,-1193467.28247,-16431.214384,-1175852.140886,-1439452.70055,-1642080.204735,-2071799.644446,-3584902.058232,-2669850.786907,-2676202.258611,-2500857.651336,-2504419.625332,-50036.078696,-2555791.980719,-2524330.738107
110.0,1.4296875,-313620.545104,-4930.973641,-1193539.16568,-16314.806499,-1175851.604444,-1439443.581038,-1642281.370435,-2071807.154632,-3584888.647185,-2669861.515744,-2676205.477262,-2500845.849615,-2504516.72131,-49895.530927,-2555791.980719,-2524321.082153
111.0,1.43359375,-313526.667777,-4928.827873,-1193511.807145,-16238.631754,-1175850.53156,-1439436.607294,-1642198.758387,-2071814.664819,-3584878.991232,-2669858.297093,-2676197.967076,-2500837.802987,-2504583.240102,-49689.000808,-2555800.027347,-2524316.254177
112.0,1.4375,-313549.734777,-5222.798016,-1193514.489354,-16373.278662,-1175882.18163,-1439471.476015,-1642199.294829,-2071845.242005,-3584904.740441,-2669867.416604,-2676205.477262,-2500862.479313,-2504618.645265,-49789.851879,-2555821.485021,-2524336.638968
113.0,1.44140625,-313634.492592,-5299.509203,-1193611.585332,-16444.625431,-1175891.837584,-1439483.814178,-1642464.833553,-2071853.288633,-3584911.177744,-2669866.343721,-2676202.795053,-2500864.088638,-2504622.9368,-50028.032068,-2555813.438393,-2524335.029642
114.0,1.4453125,-313646.294313,-5016.80434,-1193699.561799,-16337.337057,-1175865.551933,-1439453.773433,-1642671.900114,-2071836.122493,-3584878.45479,-2669848.104697,-2676185.092471,-2500832.97501,-2504693.747126,-49952.930206,-2555788.762067,-2524307.134665
115.0,1.44921875,-313551.344103,-4938.483827,-1193680.786333,-16245.069056,-1175853.750211,-1439435.53441,-1642587.142299,-2071833.440284,-3584857.533557,-2669835.230092,-2676172.217866,-2500817.418196,-2504742.026894,-49727.624622,-2555789.298509,-2524297.478711
116.0,1.453125,-313525.594893,-5212.605621,-1193657.182891,-16363.622709,-1175870.916351,-1439455.382759,-1642510.431112,-2071854.897959,-3584873.090371,-2669833.084325,-2676169.535657,-2500830.292801,-2504753.292174,-49765.711995,-2555801.636672,-2524308.743991
117.0,1.45703125,-313619.47222,-5356.908483,-1193737.649171,-16464.47378,-1175891.837584,-1439483.277736,-1642714.815463,-2071877.428517,-3584894.548046,-2669838.985186,-2676174.900076,-2500844.776731,-2504745.245546,-50012.475254,-2555805.928207,-2524317.863502
118.0,1.4609375,-313649.512964,-5227.089551,-1193827.771405,-16387.762593,-1175882.18163,-1439469.866689,-1642937.438838,-2071873.673424,-3584875.236139,-2669832.547883,-2676167.38989,-2500827.074149,-2504769.921871,-50006.574393,-2555792.51716,-2524302.306688
119.0,1.46484375,-313571.728894,-5235.136179,-1193814.360358,-16257.407219,-1175878.962979,-1439461.820061,-1642875.748023,-2071873.673424,-3584855.38779,-2669828.79279,-2676161.489029,-2500813.126661,-2504784.942244,-49760.347576,-2555799.490905,-2524296.405828
120.0,1.46875,-313540.078824,-5154.669899,-1193769.835683,-16341.628592,-1175905.785073,-1439490.787922,-1642742.173999,-2071902.641285,-3584876.845464,-2669834.693651,-2676167.38989,-2500833.511452,-2504788.160895,-49731.916157,-2555825.776556,-2524316.790619
121.0,1.47265625,-313615.717127,-5317.211785,-1193831.526498,-16467.155989,-1175907.93084,-1439498.298108,-1642884.331093,-2071904.25061,-3584880.064116,-2669817.527511,-2676153.442401,-2500831.902126,-2504775.822732,-49972.778555,-2555809.6833,-2524308.743991
122.0,1.4765625,-313663.996895,-5128.92069,-1193925.940266,-16424.777082,-1175887.009607,-1439475.76755,-1643117.146864,-2071885.475145,-3584848.950487,-2669797.679162,-2676129.838959,-2500802.934265,-2504790.306662,-50035.005812,-2555782.324765,-2524281.921897
123.0,1.48046875,-313600.160313,-4902.00578,-1193932.914011,-16290.130173,-1175895.056235,-1439480.595527,-1643090.32477,-2071905.323494,-3584854.314906,-2669820.746162,-2676145.395773,-2500809.371568,-2504842.341523,-49559.718318,-2555798.954463,-2524296.405828
124.0,1.484375,-313533.641521,-5091.369759,-1193873.905405,-16319.634476,-1175912.222375,-1439499.907434,-1642918.126931,-2071932.145587,-3584881.136999,-2669834.157209,-2676154.515285,-2500828.147033,-2504841.26864,-49322.611013,-2555794.662928,-2524314.108409
125.0,1.48828125,-313593.72301,-5339.742343,-1193908.774127,-16461.255129,-1175917.050352,-1439512.782039,-1643001.27542,-2071938.58289,-3584889.720069,-2669819.136836,-2676140.567796,-2500830.829243,-2504820.347407,-49887.484299,-2555768.377276,-2524310.889758
126.0,1.4921875,-313654.340941,-5210.996295,-1194002.115011,-16452.672059,-1175919.732561,-1439516.00069,-1643235.164074,-2071946.629518,-3584887.574302,-2669820.746162,-2676140.567796,-2500829.756359,-2504814.446546,-50060.755022,-2555761.403532,-2524307.671107
127.0,1.49609375,-313556.17208,-4921.317687,-1193564.91489,-16239.168196,-1174899.956572,-1438496.761143,-1642507.748903,-2070942.410343,-3583867.798313,-2668811.162568,-2675125.083342,-2499801.3973,-2503837.585907,-49793.07053,-2554755.03859,-2523292.723095
128.0,1.5,-312877.036676,-4880.548105,-1187838.934402,-15360.476418,-1163445.313388,-1427160.135169,-1633455.82884,-2059558.041043,-3572505.423129,-2657294.828569,-2663665.612181,-2488333.879511,-2491509.078921,-48955.148334,-2543388.908313,-2511907.280911
129.0,1.50390625,-313478.924451,-5283.415947,-1191590.80882,-16124.369636,-1172187.170051,-1435926.668158,-1638995.664,-2068240.352659,-3581254.789979,-2665999.134302,-2672472.37831,-2497169.613501,-2498715.102519,-49564.009853,-2552169.925233,-2520655.574877
130.0,1.5078125,-313765.384408,-5242.109924,-1193447.970563,-16422.631314,-1175960.502143,-1439647.428947,-1641901.569593,-2071997.055053,-3584978.769419,-2669789.096092,-2676224.789169,-2500926.315895,-2503100.514782,-50025.349858,-2555882.102952,-2524413.350155
131.0,1.51171875,-313710.667337,-4952.967757,-1193460.308726,-16289.593731,-1175965.866562,-1439620.070412,-1642007.785083,-2072013.148309,-3584954.629535,-2669818.063953,-2676214.060332,-2500900.030243,-2503655.195672,-49852.615577,-2555863.327487,-2524413.350155
132.0,1.515625,-313589.967917,-5014.658572,-1193397.545027,-16275.109801,-1175936.898701,-1439571.790644,-1641908.543337,-2071995.445728,-3584906.886209,-2669790.168976,-2676164.70768,-2500851.750475,-2503990.471839,-49678.271971,-2555826.84944,-2524374.72634
133.0,1.51953125,-313595.332336,-5312.383808,-1193398.617911,-16426.922849,-1175934.752933,-1439567.499109,-1641967.015501,-2071998.127937,-3584900.985348,-2669771.39351,-2676135.739819,-2500839.948754,-2504193.783306,-49818.81974,-2555806.464649,-2524356.487317
134.0,1.5234375,-313682.235918,-5337.596576,-1193492.495238,-16473.05685,-1175909.540166,-1439541.213458,-1642271.714481,-2071974.524495,-3584864.507301,-2669736.524789,-2676094.433796,-2500802.397824,-2504290.342842,-50040.370231,-2555757.648439,-2524313.571967
135.0,1.52734375,-313670.434197,-5041.480665,-1193564.378448,-16357.185406,-1175914.904584,-1439537.458365,-1642465.369995,-2071986.326216,-3584854.851348,-2669756.90958,-2676103.016866,-2500796.496963,-2504414.797356,-49913.76995,-2555764.085742,-2524313.571967
136.0,1.53125,-313563.145824,-5023.241642,-1193534.337704,-16292.27594,-1175927.242747,-1439542.286341,-1642376.857087,-2072009.393216,-3584861.825092,-2669772.466394,-2676112.136377,-2500805.080033,-2504545.152729,-49700.802529,-2555786.6163,-2524324.300805
137.0,1.53515625,-313551.344103,-5320.430436,-1193522.535982,-16418.876221,-1175937.435143,-1439555.697388,-1642364.518924,-2072024.413589,-3584870.408162,-2669760.664673,-2676101.40754,-2500806.689359,-2504579.485009,-49789.315437,-2555788.225626,-2524322.155037
138.0,1.5390625,-313635.565476,-5421.817949,-1193611.04889,-16505.243362,-1175934.216491,-1439553.551621,-1642627.375439,-2072021.194937,-3584866.116627,-2669745.644301,-2676084.2414,-2500798.106289,-2504588.60452,-50034.46937,-2555767.840835,-2524307.134665
139.0,1.54296875,-313656.486709,-5299.509203,-1193697.952473,-16402.246523,-1175935.825817,-1439549.260086,-1642844.634395,-2072026.559356,-3584853.778464,-2669752.081603,-2676087.460051,-2500790.596103,-2504636.884288,-49977.07009,-2555765.695067,-2524300.697363
140.0,1.546875,-313582.994173,-5322.576204,-1193672.739705,-16313.197173,-1175950.846189,-1439559.452481,-1642767.923208,-2072042.652612,-3584852.169138,-2669759.591789,-2676092.288028,-2500791.132544,-2504681.408963,-49743.717878,-2555786.079858,-2524308.743991
141.0,1.55078125,-313556.708521,-5286.098157,-1193643.771844,-16416.730454,-1175939.044468,-1439551.942295,-1642690.675579,-2072032.996658,-3584838.22165,-2669726.868835,-2676060.101516,-2500775.039288,-2504698.575103,-49768.394204,-2555768.377276,-2524289.432083
142.0,1.5546875,-313637.711243,-5422.890833,-1193721.555915,-16530.992571,-1175950.846189,-1439569.644877,-1642881.112442,-2072046.407705,-3584851.632697,-2669723.113742,-2676057.419307,-2500782.549475,-2504699.111545,-50017.30323,-2555764.622183,-2524293.723618
143.0,1.55859375,-313674.18929,-5196.512365,-1193814.360358,-16468.228873,-1175941.726678,-1439559.452481,-1643110.173119,-2072043.725496,-3584835.539441,-2669720.431533,-2676052.59133,-2500766.99266,-2504717.88701,-50025.8863,-2555752.28402,-2524279.77613
144.0,1.5625,-313593.186568,-5025.387409,-1193809.532381,-16346.456569,-1175954.064841,-1439565.353342,-1643050.628072,-2072065.18317,-3584835.539441,-2669737.597673,-2676066.002377,-2500775.039288,-2504754.365057,-49742.644995,-2555779.642556,-2524294.796502
145.0,1.56640625,-313555.635638,-5254.984528,-1193767.689916,-16399.564314,-1175962.64791,-1439573.936412,-1642904.715884,-2072075.912008,-3584846.80472,-2669732.233254,-2676057.955749,-2500779.867265,-2504763.484569,-49443.310433,-2555773.741695,-2524297.478711
146.0,1.5703125,-313637.174801,-5473.316368,-1193826.698521,-16530.992571,-1175980.350492,-1439600.222063,-1643032.389049,-2072094.687473,-3584869.87172,-2669733.84258,-2676061.1744,-2500793.814754,-2504758.656592,-49875.682578,-2555759.257765,-2524308.743991
147.0,1.57421875,-313691.35543,-5303.800738,-1193927.549592,-16504.170478,-1176005.56326,-1439623.825505,-1643269.496354,-2072125.26466,-3584887.574302,-2669762.273999,-2676085.850726,-2500812.590219,-2504796.207523,-50064.510115,-2555773.741695,-2524330.201665
148.0,1.578125,-313625.37308,-5070.984968,-1193943.642848,-16367.914244,-1175996.98019,-1439609.878017,-1643248.575121,-2072129.556194,-3584872.017488,-2669763.883324,-2676083.704958,-2500799.179172,-2504819.274523,-49822.038391,-2555778.569672,-2524325.373688
149.0,1.58203125,-313550.271219,-5249.62011,-1193891.071545,-16374.351546,-1175989.470004,-1439604.513598,-1643074.231514,-2072127.946869,-3584862.361534,-2669742.962091,-2676063.856609,-2500789.523219,-2504820.347407,-49725.478855,-2555779.106114,-2524317.863502
150.0,1.5859375,-313616.790011,-5509.257973,-1193929.158918,-16526.164594,-1176022.7294,-1439645.28318,-1643143.968957,-2072161.742707,-3584892.93872,-2669755.836696,-2676078.876982,-2500820.100405,-2504818.201639,-49938.446276,-2555798.418021,-2524340.394061
151.0,1.58984375,-313679.553709,-5399.287391,-1194027.864221,-16505.243362,-1175989.470004,-1439613.096668,-1643387.513565,-2072131.16552,-3584855.38779,-2669718.822207,-2676042.398935,-2500780.403707,-2504808.545686,-50077.38472,-2555753.893346,-2524299.624479
152.0,1.59375,-313630.201057,-5116.046085,-1194057.904966,-16363.086267,-1175970.694538,-1439587.8839,-1643413.262774,-2072120.436683,-3584826.419929,-2669708.629812,-2676028.451446,-2500754.654497,-2504813.373663,-49857.979996,-2555745.310276,-2524281.921897
153.0,1.59765625,-313438.154869,-5185.783528,-1193120.204582,-16225.757149,-1174048.086887,-1437674.395761,-1641824.321964,-2070218.213823,-3582911.858906,-2667773.147556,-2674092.432748,-2498823.463777,-2502880.037174,-49618.726923,-2553838.795881,-2522367.897316
154.0,1.6015625,-312921.024909,-5265.713366,-1187686.04847,-15542.33021,-1163180.847547,-1426943.949097,-1633260.027559,-2059415.347506,-3572150.835055,-2656831.342796,-2663227.875617,-2487961.588855,-2490856.765611,-49090.331684,-2543057.923681,-2511570.395418
155.0,1.60546875,-313626.445964,-5399.823832,-1192360.066457,-16304.614103,-1173601.230812,-1437360.577269,-1640352.325481,-2069765.456887,-3582554.588622,-2667244.752317,-2673716.387,-2498468.339261,-2500070.154675,-49818.81974,-2553490.108668,-2521982.732056
156.0,1.609375,-313725.151268,-5127.847806,-1193532.728378,-16351.820988,-1176027.557376,-1439730.040995,-1642157.988806,-2072192.319893,-3584932.098977,-2669703.801835,-2676130.911843,-2500867.843731,-2503197.074318,-49853.688461,-2555876.738534,-2524407.449294
157.0,1.61328125,-313596.40522,-5166.47162,-1193455.480749,-16326.071778,-1176035.067562,-1439711.801971,-1642027.09699,-2072216.459777,-3584917.078604,-2669717.212882,-2676114.818587,-2500849.068266,-2503704.011882,-49672.37111,-2555867.619022,-2524412.813713
158.0,1.6171875,-313598.550987,-5455.613787,-1193451.189214,-16472.520408,-1176030.239586,-1439698.927367,-1642063.038595,-2072213.241126,-3584898.303139,-2669695.218765,-2676075.65833,-2500826.537708,-2503993.154048,-49801.6536,-2555833.823184,-2524388.137387
159.0,1.62109375,-313668.824872,-5500.674903,-1193548.821634,-16526.164594,-1176000.735283,-1439662.985762,-1642364.518924,-2072182.127497,-3584858.606441,-2669660.350044,-2676026.842121,-2500782.013033,-2504185.200236,-50027.495626,-2555779.106114,-2524338.784735
160.0,1.625,-313659.70536,-5450.78581,-1193624.459937,-16416.194012,-1176003.953934,-1439651.720482,-1642576.949904,-2072190.710567,-3584843.049627,-2669671.078881,-2676027.915004,-2500769.138428,-2504335.403959,-49911.624183,-2555775.351021,-2524328.59234
161.0,1.62890625,-313564.755149,-5333.305041,-1193592.809867,-16330.363313,-1176016.828539,-1439658.157785,-1642510.967554,-2072208.413149,-3584843.049627,-2669679.661951,-2676032.742981,-2500768.065544,-2504443.765216,-49688.464366,-2555793.053602,-2524332.883875
162.0,1.6328125,-313571.192452,-5346.179646,-1193583.690355,-16439.797454,-1176016.828539,-1439661.912878,-1642493.264972,-2072208.949591,-3584835.539441,-2669657.131393,-2676007.530213,-2500758.409591,-2504509.747566,-49757.128925,-2555781.788323,-2524316.790619
163.0,1.63671875,-313651.658732,-5442.739182,-1193678.104124,-16528.846804,-1176022.192958,-1439671.03239,-1642739.491789,-2072214.850451,-3584838.758092,-2669652.303416,-2675999.483585,-2500758.946032,-2504553.735799,-50000.137091,-2555769.45016,-2524311.4262
164.0,1.640625,-313667.215546,-5169.690272,-1193776.809427,-16450.526291,-1176033.458237,-1439675.323924,-1642959.969397,-2072232.553033,-3584840.367417,-2669673.224649,-2676014.503958,-2500763.774009,-2504618.108823,-49947.565788,-2555779.642556,-2524317.863502
165.0,1.64453125,-313567.437359,-5040.944224,-1193770.372125,-16310.514964,-1176036.676888,-1439671.03239,-1642889.15907,-2072247.573405,-3584843.049627,-2669686.635695,-2676018.259051,-2500761.628242,-2504674.971661,-49467.450317,-2555788.225626,-2524321.082153
166.0,1.6484375,-313530.959312,-5286.098157,-1193746.232241,-16392.59057,-1176033.994679,-1439669.959506,-1642793.672418,-2072244.891196,-3584841.440301,-2669671.078881,-2675995.728492,-2500754.654497,-2504707.694615,-49405.22306,-2555753.356904,-2524312.499084
167.0,1.65234375,-313611.425592,-5444.884949,-1193824.016312,-16504.70692,-1176033.458237,-1439678.006134,-1642974.453327,-2072247.573405,-3584840.367417,-2669658.204276,-2675982.853887,-2500751.435846,-2504713.059034,-49944.883578,-2555727.607695,-2524302.84313
168.0,1.65625,-313645.221429,-5209.923412,-1193925.940266,-16441.406779,-1176029.166702,-1439671.568831,-1643212.097074,-2072251.328498,-3584831.247906,-2669659.27716,-2675982.317446,-2500741.243451,-2504728.615848,-49983.507393,-2555717.415299,-2524295.332944
169.0,1.66015625,-313560.463615,-5004.466177,-1193933.986894,-16308.905638,-1176030.776028,-1439667.277296,-1643174.009701,-2072264.203103,-3584825.347045,-2669667.323788,-2675988.754748,-2500738.561241,-2504761.338802,-49727.624622,-2555734.581439,-2524300.697363
170.0,1.6640625,-313493.944823,-5205.631877,-1193894.826638,-16336.264174,-1176028.63026,-1439666.740855,-1643031.316165,-2072265.275987,-3584822.128394,-2669651.766974,-2675971.588608,-2500732.123939,-2504760.265918,-49667.543133,-2555736.190764,-2524295.332944
171.0,1.66796875,-313571.192452,-5416.45353,-1193952.76236,-16470.911082,-1176061.889656,-1439704.828227,-1643147.72405,-2072300.68115,-3584855.38779,-2669665.178021,-2675989.29119,-2500762.701125,-2504771.531197,-49891.775834,-2555754.429788,-2524319.472828
172.0,1.671875,-313626.982406,-5327.940622,-1194061.660059,-16453.744942,-1176074.764261,-1439715.557064,-1643386.440681,-2072316.237964,-3584860.752208,-2669676.979742,-2675997.87426,-2500768.065544,-2504786.015127,-49977.07009,-2555757.111997,-2524326.446572
173.0,1.67578125,-313570.119568,-5270.004901,-1194084.727059,-16298.176801,-1176080.128679,-1439718.239274,-1643385.367797,-2072329.649011,-3584854.314906,-2669688.245021,-2676006.45733,-2500765.383335,-2504804.254151,-49734.598367,-2555773.741695,-2524332.347433
174.0,1.6796875,-313504.137218,-5111.75455,-1194031.082872,-16283.156429,-1176070.472726,-1439710.729088,-1643211.560632,-2072321.602383,-3584838.22165,-2669660.886486,-2675983.390329,-2500750.899404,-2504804.790593,-49619.263365,-2555767.840835,-2524319.472828
175.0,1.68359375,-313553.48987,-5305.410064,-1194063.805826,-16433.360151,-1176074.764261,-1439723.603692,-1643259.303958,-2072328.039685,-3584843.586069,-2669646.402555,-2675969.979283,-2500753.581614,-2504814.446546,-49816.673972,-2555762.476416,-2524316.254177
176.0,1.6875,-313617.862894,-5202.413225,-1194165.729781,-16423.704198,-1176069.936284,-1439718.239274,-1643484.073101,-2072326.43036,-3584834.466557,-2669634.600834,-2675961.396213,-2500743.92566,-2504815.51943,-49963.122602,-2555747.456044,-2524303.916014
177.0,1.69140625,-313578.166196,-4906.297315,-1194210.254456,-16290.666615,-1176078.519354,-1439720.921483,-1643514.113845,-2072345.205825,-3584830.175022,-2669653.912741,-2675979.098794,-2500748.217195,-2504827.321151,-49750.155181,-2555765.158625,-2524314.108409
178.0,1.6953125,-313496.627032,-4988.372921,-1194159.82892,-16238.631754,-1176076.910028,-1439715.557064,-1643323.676982,-2072348.960918,-3584822.128394,-2669638.892369,-2675965.687748,-2500738.561241,-2504831.076244,-49588.149737,-2555770.523044,-2524309.816874
179.0,1.69921875,-313522.376242,-5260.348947,-1194026.791337,-16370.060011,-1175704.619372,-1439353.458804,-1643073.158631,-2071979.888914,-3584453.056389,-2669244.607597,-2675574.621627,-2500363.588376,-2504467.9051,-49736.207692,-2555390.18576,-2523931.625358
180.0,1.703125,-313012.220027,-5090.296875,-1188765.369507,-15567.542978,-1164768.715473,-1428521.088185,-1634901.00323,-2061109.967364,-3573599.764538,-2658263.106139,-2664632.280425,-2489408.37257,-2492888.270961,-49235.170988,-2544505.78028,-2513048.292762
181.0,1.70703125,-313379.146263,-4967.451688,-1191065.632232,-15782.656167,-1170506.497682,-1434304.467953,-1638238.208084,-2066812.34441,-3579364.905282,-2663991.232394,-2670461.794193,-2495235.204129,-2496901.392567,-49055.999405,-2550306.862629,-2518818.261483
182.0,1.7109375,-313617.326452,-4882.157431,-1193656.110007,-16195.716404,-1176120.898261,-1439856.641275,-1642046.945339,-2072401.532221,-3584933.17186,-2669630.845741,-2676067.075261,-2500848.531824,-2503013.074757,-49483.543573,-2555871.374115,-2524420.860341
183.0,1.71484375,-313591.577243,-5156.815667,-1193619.095518,-16338.409941,-1176130.017773,-1439843.230229,-1642017.441036,-2072416.552593,-3584914.932837,-2669629.236416,-2676032.206539,-2500827.074149,-2503575.265834,-49663.78804,-2555838.114719,-2524418.178131
184.0,1.71875,-313667.751988,-5209.38697,-1193705.999101,-16408.147384,-1176133.236424,-1439833.574275,-1642296.390807,-2072424.599221,-3584902.058232,-2669629.772857,-2676011.821748,-2500808.835126,-2503900.886047,-49896.60381,-2555808.073975,-2524404.767085
185.0,1.72265625,-313657.559592,-4912.198175,-1193789.684032,-16298.713243,-1176132.16354,-1439819.090345,-1642524.915043,-2072432.645849,-3584880.600557,-2669641.038137,-2676005.384446,-2500790.596103,-2504141.212003,-49795.752739,-2555797.345137,-2524391.89248
186.0,1.7265625,-313549.734777,-4849.970919,-1193774.66366,-16204.299474,-1176134.84575,-1439809.434391,-1642472.34374,-2072444.44757,-3584871.481046,-2669646.938997,-2676001.092911,-2500782.549475,-2504317.164936,-49567.228504,-2555804.318882,-2524387.064503
187.0,1.73046875,-313539.542382,-5125.165597,-1193769.835683,-16303.54122,-1176132.16354,-1439804.606414,-1642453.568274,-2072442.838245,-3584862.897976,-2669624.944881,-2675974.807259,-2500770.211312,-2504438.400798,-49621.409133,-2555789.834951,-2524368.82548
188.0,1.734375,-313624.300197,-5245.865017,-1193865.322335,-16390.981244,-1176147.183913,-1439823.38188,-1642700.331533,-2072462.150152,-3584877.918348,-2669629.236416,-2675978.025911,-2500778.25794,-2504495.263636,-49866.563066,-2555789.298509,-2524372.044131
189.0,1.73828125,-313641.466336,-4985.690711,-1193971.001383,-16290.666615,-1176131.090657,-1439799.778438,-1642944.949024,-2072449.811989,-3584849.486929,-2669618.507578,-2675959.250445,-2500751.435846,-2504552.662915,-49836.522321,-2555765.695067,-2524348.977131
190.0,1.7421875,-313549.198335,-4848.898035,-1193975.292918,-16212.346102,-1176126.799122,-1439790.658926,-1642894.523489,-2072456.785733,-3584838.22165,-2669621.189788,-2675956.568236,-2500743.92566,-2504613.280846,-49590.831946,-2555776.423904,-2524345.758479
191.0,1.74609375,-313493.944823,-5099.952829,-1193957.053895,-16273.500475,-1176145.574587,-1439810.507275,-1642796.354627,-2072481.998501,-3584853.778464,-2669622.262671,-2675960.323329,-2500760.018916,-2504650.831777,-49582.785318,-2555794.662928,-2524359.705968
192.0,1.75,-313566.364475,-5287.17104,-1194039.665942,-16393.127011,-1176114.460959,-1439787.440275,-1642987.864374,-2072450.884873,-3584821.05551,-2669574.519345,-2675912.580003,-2500723.540869,-2504637.42073,-49828.475693,-2555747.992486,-2524315.181293
193.0,1.75390625,-313607.670499,-5079.568038,-1194149.636525,-16329.290429,-1176103.19568,-1439771.883461,-1643241.601377,-2072443.911129,-3584800.134277,-2669566.472717,-2675901.314724,-2500705.301846,-2504666.388591,-49870.854601,-2555730.289904,-2524297.478711
194.0,1.7578125,-313532.568637,-4877.329454,-1194171.0942,-16217.174079,-1176109.09654,-1439770.810577,-1643214.242842,-2072459.467943,-3584797.98851,-2669581.493089,-2675911.507119,-2500707.984055,-2504709.840382,-49584.931086,-2555750.674695,-2524307.671107
195.0,1.76171875,-313481.070218,-5083.859573,-1194136.225478,-16252.0428,-1176099.440587,-1439762.763949,-1643065.112003,-2072451.421315,-3584793.696975,-2669563.790508,-2675885.75791,-2500692.963683,-2504718.423452,-49261.993082,-2555729.21702,-2524295.332944
196.0,1.765625,-313562.07294,-5322.039762,-1194199.525618,-16394.199895,-1176108.560098,-1439780.46653,-1643172.936818,-2072465.368803,-3584808.717347,-2669556.280322,-2675879.320607,-2500699.400985,-2504706.621731,-49698.12032,-2555705.613578,-2524296.405828
197.0,1.76953125,-313623.227313,-5292.535459,-1194311.105527,-16365.768476,-1176111.778749,-1439785.294507,-1643411.653449,-2072472.342547,-3584804.425812,-2669556.816763,-2675880.929933,-2500696.182334,-2504714.131917,-49910.014857,-2555697.030508,-2524293.723618
198.0,1.7734375,-313572.265336,-5258.739621,-1194334.708969,-16230.585126,-1176120.361819,-1439787.976717,-1643417.017867,-2072482.534943,-3584797.98851,-2669567.545601,-2675891.122328,-2500691.890799,-2504742.026894,-49681.490622,-2555708.832229,-2524298.015153
199.0,1.77734375,-313502.527893,-5067.229875,-1194281.601224,-16254.72501,-1176143.42882,-1439811.043717,-1643239.992051,-2072510.966362,-3584817.836859,-2669576.665113,-2675901.314724,-2500712.812032,-2504752.755732,-49564.009853,-2555738.872974,-2524318.936386
200.0,1.78125,-313560.463615,-5276.442203,-1194322.370806,-16405.465174,-1176156.303424,-1439829.28274,-1643287.735377,-2072524.377409,-3584828.565696,-2669566.472717,-2675892.731654,-2500719.785776,-2504748.464197,-49767.32132,-2555737.80009,-2524320.545712
201.0,1.78515625,-313644.148546,-5209.38697,-1194428.586296,-16409.220267,-1176152.011889,-1439828.209857,-1643517.868938,-2072521.158757,-3584817.836859,-2669555.74388,-2675881.466375,-2500707.447613,-2504731.834499,-49936.83695,-2555720.097508,-2524310.889758
