Timestamp,Fp1,Fp2,F3,F4,T5,T6,O1,O2,F7,F8,C3,C4,T3,T4,P3,P4
0.0,0.0,0.0,0.0,0.0,0.0,0.0,0.0,0.0,0.0,0.0,0.0,0.0,0.0,0.0,0.0,0.0
0.00390625,-325030.127171,-8672.119221,-1244713.574018,-19049.587136,-1215933.467857,-1493448.256665,-1713446.821385,-2173184.475086,-3572872.885808,-2627549.127048,-2633811.012961,-2482805.30963,-2486327.050486,-51992.482184,-2547588.71169,-2524002.435684
0.0078125,-324940.004938,-8822.859385,-1244659.393389,-19048.514253,-1215946.342462,-1493460.594828,-1713258.53029,-2173204.323435,-3572889.515506,-2627556.100792,-2633813.158728,-2482813.356258,-2486307.738579,-51584.786366,-2547595.148992,-2524014.773847
0.01171875,-325025.299194,-9090.007435,-1244721.084204,-19204.082394,-1215964.045043,-1493486.344038,-1713320.221105,-2173222.562459,-3572911.509623,-2627556.637234,-2633813.69517,-2482830.522398,-2486352.799696,-51967.269417,-2547578.519294,-2524026.575569
0.015625,-325134.733335,-9022.952202,-1244853.048903,-19212.129022,-1215937.759392,-1493462.740596,-1713554.6462,-2173197.886133,-3572878.250227,-2627526.59649,-2633784.190867,-2482798.872328,-2486389.277743,-52297.181165,-2547537.21327,-2523991.170405
0.01953125,-325070.896753,-8740.78378,-1244651.883203,-19064.607509,-1215407.754827,-1492928.980938,-1713248.874336,-2172680.756173,-3572345.563453,-2627006.247879,-2633259.01428,-2482262.430461,-2485838.351946,-52085.823069,-2547018.473985,-2523464.920934
0.0234375,-324120.321765,-8401.75252,-1238690.941178,-17972.411868,-1203771.25785,-1481401.918102,-1705299.878752,-2161126.334801,-3560805.626012,-2615320.934692,-2621622.517302,-2470614.668204,-2473684.725009,-51023.131731,-2535473.708567,-2511905.135143
0.02734375,-324736.157028,-8932.293526,-1241749.196261,-18696.071946,-1210829.759935,-1488510.30928,-1708941.246145,-2168133.874909,-3567889.877306,-2622338.130753,-2628748.611063,-2477771.875593,-2478890.356885,-51594.442319,-2542590.682815,-2518987.240671
0.03125,-325264.552267,-9110.392226,-1244395.463991,-19222.857859,-1216005.351067,-1493626.891807,-1712390.030907,-2173276.743087,-3573011.824252,-2627528.205815,-2633904.353846,-2482938.347213,-2484402.83351,-52297.717607,-2547696.000063,-2524136.546151
0.03515625,-325232.902197,-8844.853502,-1244428.723386,-19075.872788,-1215977.992532,-1493564.66455,-1712506.438793,-2173261.186273,-3572945.30546,-2627518.549862,-2633852.855426,-2482870.755538,-2484972.534772,-52179.700396,-2547635.382132,-2524094.167244
0.0390625,-325096.645963,-8879.722223,-1244357.91306,-19068.899044,-1215965.654369,-1493531.405155,-1712390.030907,-2173261.186273,-3572916.874041,-2627511.576117,-2633823.887566,-2482841.251235,-2485314.784684,-51979.071138,-2547618.752434,-2524072.173127
0.04296875,-325096.645963,-9182.811878,-1244362.204595,-19232.513813,-1215990.330695,-1493551.253504,-1712414.707233,-2173289.617692,-3572934.576623,-2627520.159187,-2633823.887566,-2482856.271607,-2485585.151384,-52092.260372,-2547626.26262,-2524080.219755
0.046875,-325223.782685,-9274.543437,-1244492.023527,-19319.953837,-1215999.450207,-1493557.690806,-1712705.458725,-2173300.34653,-3572931.357972,-2627520.159187,-2633815.304496,-2482853.052956,-2485791.145061,-52364.236398,-2547608.023597,-2524072.173127
0.05078125,-325254.359872,-9026.707295,-1244597.166133,-19230.368046,-1216001.595974,-1493551.253504,-1712910.379518,-2173308.929599,-3572918.483367,-2627533.033792,-2633817.986705,-2482844.469886,-2485929.547063,-52311.128653,-2547605.877829,-2524063.590057
0.0546875,-325148.680824,-8992.911457,-1244568.734714,-19152.047533,-1215980.138299,-1493521.749201,-1712820.793727,-2173296.054995,-3572888.979064,-2627512.112559,-2633789.555286,-2482813.8927,-2485960.660691,-52086.895953,-2547593.003224,-2524035.69508
0.05859375,-325152.972359,-9292.246019,-1244566.052504,-19287.230884,-1215968.87302,-1493513.166131,-1712780.560587,-2173286.935483,-3572873.958692,-2627481.535373,-2633756.29589,-2482797.263002,-2486040.054088,-52140.54014,-2547573.154875,-2524014.773847
0.0625,-325304.785407,-9462.834533,-1244691.043459,-19401.493001,-1215995.158672,-1493544.816201,-1713014.985682,-2173312.148251,-3572896.48925,-2627490.118443,-2633767.024728,-2482816.038467,-2486126.95767,-52429.145864,-2547579.055736,-2524026.039127
0.06640625,-325386.324571,-9266.496809,-1244819.253065,-19315.662302,-1215984.966276,-1493530.332271,-1713234.926848,-2173306.24739,-3572875.031576,-2627482.608257,-2633756.29589,-2482796.190118,-2486157.534857,-52458.650167,-2547560.816712,-2524007.800103
0.0703125,-325314.441361,-9181.202552,-1244817.107298,-19274.892721,-1215976.383206,-1493515.311899,-1713154.99701,-2173308.929599,-3572856.792552,-2627476.707396,-2633746.103495,-2482780.633304,-2486143.050926,-52241.927653,-2547564.571806,-2523999.753475
0.07421875,-325279.572639,-9462.298091,-1244794.040298,-19378.426001,-1215981.747625,-1493523.894968,-1713043.953543,-2173318.585553,-3572860.011203,-2627463.832791,-2633734.301774,-2482782.779072,-2486162.362833,-52238.17256,-2547569.399782,-2524000.289917
0.078125,-325420.65685,-9699.941838,-1244898.11002,-19516.291561,-1216011.78837,-1493562.518783,-1713216.687824,-2173349.699181,-3572892.734157,-2627476.707396,-2633750.931472,-2482811.746932,-2486221.371439,-52526.241842,-2547584.420155,-2524020.674708
0.08203125,-325538.137619,-9565.831371,-1245033.829812,-19457.819397,-1216010.179044,-1493557.154364,-1713451.11292,-2173349.699181,-3572879.859552,-2627474.025187,-2633742.348402,-2482799.945211,-2486243.901997,-52636.212425,-2547568.86334,-2524008.872987
0.0859375,-325493.612944,-9426.356486,-1245047.240859,-19356.431884,-1215974.773881,-1493515.84834,-1713399.614501,-2173323.41353,-3572836.407761,-2627445.057326,-2633707.47968,-2482758.102746,-2486197.231555,-52432.364515,-2547545.259898,-2523974.540707
0.08984375,-325441.578083,-9674.192628,-1245005.398393,-19470.694002,-1215986.575602,-1493526.040736,-1713235.46329,-2173338.433902,-3572843.917947,-2627439.692907,-2633704.797471,-2482767.222258,-2486181.674741,-52374.965236,-2547558.670945,-2523984.733103
0.09375,-325570.324131,-9967.626329,-1245089.083325,-19648.792702,-1215988.184927,-1493535.69669,-1713345.433872,-2173338.433902,-3572843.917947,-2627415.553023,-2633687.631331,-2482763.467164,-2486228.345183,-52645.868378,-2547542.041247,-2523974.540707
0.09765625,-325718.918528,-9904.862631,-1245224.803117,-19653.620679,-1216003.2053,-1493554.472155,-1713576.103875,-2173357.209367,-3572853.573901,-2627428.427628,-2633698.360169,-2482773.123118,-2486264.82323,-52834.695916,-2547542.577689,-2523985.269545
0.1015625,-325717.845645,-9733.201234,-1245259.135396,-19572.081515,-1216002.132416,-1493548.034853,-1713558.401294,-2173364.719554,-3572841.77218,-2627434.328489,-2633700.505936,-2482765.07649,-2486228.881625,-52661.961634,-2547547.942108,-2523986.87887
0.10546875,-325667.956551,-9946.168655,-1245207.100535,-19610.168887,-1216012.324811,-1493557.154364,-1713363.672896,-2173379.739926,-3572847.136598,-2627431.646279,-2633696.214401,-2482771.513792,-2486212.788369,-52568.084308,-2547564.571806,-2523992.243289
0.109375,-325799.384808,-10302.366054,-1245269.864234,-19807.579494,-1216030.027393,-1493582.367132,-1713411.952664,-2173396.906066,-3572863.766296,-2627423.063209,-2633692.459308,-2482785.461281,-2486244.974881,-52825.039962,-2547564.571806,-2523998.680591
0.11328125,-325999.477625,-10353.864474,-1245413.094212,-19862.296565,-1216048.266417,-1493604.89769,-1713649.596411,-2173415.681531,-3572878.250227,-2627431.109837,-2633702.115262,-2482796.190118,-2486256.24016,-53098.088872,-2547565.644689,-2524008.336545
0.1171875,-326071.360835,-10205.270076,-1245483.904539,-19768.419238,-1216030.027393,-1493581.294248,-1713689.829551,-2173403.87981,-3572849.818808,-2627415.553023,-2633683.339796,-2482769.368025,-2486234.246043,-53003.675104,-2547547.942108,-2523987.415312
0.12109375,-325981.238601,-10355.473799,-1244806.378461,-19741.060703,-1214670.683702,-1492226.242092,-1712653.423864,-2172054.192073,-3571489.938675,-2626037.433867,-2632302.001989,-2481398.222613,-2484871.14726,-52825.039962,-2546192.889952,-2522626.462296
0.125,-325282.791291,-10218.681123,-1238731.71076,-18835.546832,-1202930.653445,-1480621.395185,-1704660.440047,-2160393.018769,-3559866.852744,-2614226.593283,-2620565.726824,-2469666.238983,-2472354.349179,-52156.633396,-2534541.909044,-2510968.507644
0.12890625,-326350.847048,-10833.979944,-1243351.011676,-19838.693123,-1212689.067446,-1490398.04821,-1710333.31279,-2170078.476677,-3569616.683676,-2623958.721633,-2630384.222315,-2479512.629451,-2480407.414485,-53164.071222,-2544315.343418,-2520725.312319
0.1328125,-326776.78189,-10906.936038,-1245125.02493,-20126.225963,-1216092.791092,-1493744.372576,-1712568.666049,-2173468.252834,-3572956.034297,-2627383.366511,-2633761.123867,-2482884.703026,-2484263.358624,-53477.889714,-2547655.230481,-2524109.187616
0.13671875,-326792.875146,-11102.200878,-1245064.406999,-20201.327825,-1216066.50544,-1493691.264831,-1712433.482699,-2173455.378229,-3572902.390111,-2627360.835953,-2633702.115262,-2482826.767305,-2484787.99877,-53395.814108,-2547602.122736,-2524074.855337
0.140625,-326939.860218,-11585.535,-1245079.427371,-20456.674153,-1216065.968998,-1493682.681761,-1712432.946257,-2173460.742648,-3572888.979064,-2627340.987604,-2633665.637215,-2482809.601165,-2485169.408938,-53622.192576,-2547572.081992,-2524056.079871
0.14453125,-327226.320174,-11881.650911,-1245222.120908,-20639.60083,-1216067.041882,-1493682.681761,-1712709.75026,-2173465.034183,-3572877.713785,-2627324.357906,-2633639.888005,-2482795.653676,-2485406.516243,-54028.815511,-2547536.676828,-2524032.476429
0.1484375,-327436.605386,-11840.344887,-1245354.085607,-20614.924504,-1216100.301278,-1493705.748761,-1712922.717681,-2173500.975788,-3572891.124832,-2627357.617302,-2633660.809238,-2482809.064723,-2485575.495431,-54131.81235,-2547547.405666,-2524047.496801
0.15234375,-327504.197062,-11987.8664,-1245354.085607,-20663.204272,-1216096.009743,-1493691.801273,-1712837.423424,-2173505.267323,-3572878.250227,-2627351.179999,-2633643.643098,-2482792.971467,-2485647.915083,-54042.226558,-2547540.431922,-2524036.231522
0.15625,-327649.036366,-12470.66408,-1245369.105979,-20910.503973,-1216065.968998,-1493662.833412,-1712780.560587,-2173481.663881,-3572847.136598,-2627300.754464,-2633589.998912,-2482760.784955,-2485721.944061,-54213.351514,-2547498.589456,-2523997.607708
0.16015625,-327956.953997,-12844.564062,-1245508.044423,-21132.590906,-1216082.062254,-1493688.04618,-1713007.475496,-2173502.585113,-3572860.547645,-2627294.853603,-2633589.46247,-2482774.732444,-2485800.801015,-54636.067705,-2547489.469944,-2524000.826359
0.1640625,-328214.982535,-12857.975108,-1245652.883727,-21142.246859,-1216057.385928,-1493661.760528,-1713238.145499,-2173481.127439,-3572819.778063,-2627263.739975,-2633555.13019,-2482736.645071,-2485832.451085,-54816.312172,-2547443.872385,-2523963.81187
0.16796875,-328309.932746,-12939.514272,-1245663.076122,-21156.73079,-1216075.08851,-1493671.952924,-1713166.798731,-2173504.730881,-3572826.751808,-2627279.296789,-2633558.348841,-2482742.545932,-2485821.722248,-54725.653496,-2547459.965641,-2523976.150033
0.171875,-328421.512654,-13387.443231,-1245645.909982,-21376.671955,-1216079.916487,-1493679.999552,-1713039.125566,-2173519.214811,-3572832.116226,-2627266.422184,-2633541.719144,-2482744.691699,-2485848.007899,-54828.650335,-2547460.502083,-2523978.2958
0.17578125,-328705.290402,-13809.62298,-1245754.807681,-21620.216563,-1216089.57244,-1493697.702133,-1713196.839475,-2173534.235184,-3572839.626412,-2627251.401812,-2633532.06319,-2482755.420536,-2485896.824109,-55233.663944,-2547448.700362,-2523978.832242
0.1796875,-328982.094405,-13869.168028,-1245900.183427,-21665.814121,-1216086.353789,-1493692.337715,-1713438.238315,-2173534.771625,-3572824.069598,-2627237.990765,-2633519.725027,-2482740.936606,-2485915.063133,-55485.25518,-2547425.09692,-2523965.957638
0.18359375,-329099.575174,-13892.77147,-1245924.859753,-21652.939517,-1216074.015626,-1493673.562249,-1713400.687385,-2173527.797881,-3572799.929714,-2627225.116161,-2633499.876678,-2482716.26028,-2485892.532574,-55400.497365,-2547409.003664,-2523947.182172
0.1875,-329185.405873,-14291.347777,-1245877.652869,-21841.767054,-1216083.67158,-1493685.900412,-1713233.853964,-2173543.891137,-3572809.049226,-2627218.678858,-2633491.83005,-2482724.84335,-2485864.637597,-55441.266947,-2547418.659618,-2523954.692358
0.19140625,-329442.897969,-14748.396247,-1245951.145405,-22099.795592,-1216081.525812,-1493691.801273,-1713328.804175,-2173549.255556,-3572806.903458,-2627191.856765,-2633469.299492,-2482722.697583,-2485919.354668,-55811.411835,-2547397.201943,-2523946.64573
0.1953125,-329727.7486,-14861.049039,-1246088.474523,-22178.116104,-1216070.260533,-1493684.291087,-1713564.302154,-2173541.208928,-3572787.591551,-2627170.935532,-2633449.451142,-2482704.458559,-2485954.223389,-56116.647257,-2547364.478989,-2523927.870265
0.19921875,-329860.249741,-14833.154062,-1246125.489011,-22138.419406,-1216069.724091,-1493680.535994,-1713563.22927,-2173546.573346,-3572776.326272,-2627171.471974,-2633445.159608,-2482692.656838,-2485932.229272,-56054.420001,-2547361.79678,-2523924.651614
0.203125,-329921.940556,-15164.675136,-1246062.188871,-22288.623129,-1216074.015626,-1493685.36397,-1713366.891547,-2173558.375068,-3572778.47204,-2627163.961788,-2633433.894328,-2482693.729722,-2485919.354668,-56037.790303,-2547366.624757,-2523927.870265
0.20703125,-330144.563931,-15637.280421,-1246100.276244,-22550.40676,-1216075.08851,-1493693.410598,-1713401.223827,-2173565.348812,-3572781.154249,-2627139.285462,-2633415.118863,-2482696.411931,-2485936.520807,-56357.509656,-2547352.140826,-2523923.57873
0.2109375,-330414.39419,-15788.020586,-1246216.147687,-22654.476482,-1216078.843603,-1493701.993668,-1713633.503155,-2173571.249672,-3572776.326272,-2627128.556624,-2633407.072235,-2482693.19328,-2485962.270017,-56694.395148,-2547333.365361,-2523919.287195
0.21484375,-330537.239377,-15690.388166,-1246255.844385,-22587.421249,-1216087.963115,-1493702.53011,-1713676.954946,-2173583.051393,-3572767.743202,-2627137.676136,-2633408.681561,-2482686.219536,-2485972.998854,-56647.724706,-2547333.365361,-2523919.287195
0.21875,-330536.702935,-15899.600494,-1246172.159454,-22668.423971,-1216061.677463,-1493676.244459,-1713472.034153,-2173566.958137,-3572739.311783,-2627105.489624,-2633371.667072,-2482656.178791,-2485934.37504,-56550.092286,-2547312.444128,-2523894.074427
0.22265625,-328168.312093,-14686.168991,-1237006.513716,-20626.726225,-1198713.683929,-1476448.950344,-1702262.00846,-2156504.888118,-3555962.628837,-2609951.688045,-2616269.363912,-2465523.834887,-2469255.860955,-54410.225679,-2530287.925039,-2506882.429943
0.2265625,-321104.445589,-10213.316704,-1211844.171505,-14287.056242,-1154808.59933,-1431660.882433,-1672092.517864,-2113521.410647,-3514458.658035,-2566923.685899,-2573729.523865,-2422830.036024,-2424737.086861,-47389.274524,-2487946.032041,-2464434.857897
0.23046875,-324891.188728,-12090.863239,-1220386.471794,-16987.5046,-1173206.94604,-1445585.840414,-1681070.408949,-2129994.467496,-3531523.946705,-2584321.032086,-2591566.21594,-2440801.375008,-2433735.899178,-50372.964188,-2505824.03014,-2482221.124437
0.234375,-330875.197753,-15854.002935,-1238965.599414,-22096.576941,-1210642.541724,-1481632.588104,-1701824.271896,-2165760.119648,-3568000.920773,-2621453.538114,-2628594.115805,-2477929.05306,-2462915.65453,-55816.239812,-2542695.288979,-2519188.942813
0.23828125,-331794.122671,-16880.216227,-1241656.391818,-23131.909744,-1216236.557512,-1491340.040128,-1705288.077031,-2172736.546127,-3573326.715628,-2627079.740415,-2633963.362451,-2483309.028543,-2472807.642556,-57010.89585,-2548000.162601,-2524660.649855
0.2421875,-331913.212766,-17177.941463,-1241667.657097,-23318.591513,-1216192.569279,-1493603.288365,-1705963.457342,-2173652.788836,-3573153.981346,-2627054.527647,-2633774.534914,-2483114.300145,-2477007.445932,-57437.903576,-2547765.201064,-2524502.399504
0.24609375,-332009.772302,-17128.588811,-1241772.799703,-23297.133839,-1216195.251488,-1494080.185185,-1706674.242815,-2173742.374628,-3573057.42181,-2627079.203973,-2633688.704215,-2483010.766865,-2479668.734034,-57556.99367,-2547646.647411,-2524398.329782
0.25,-331976.512906,-17222.466138,-1241804.449773,-23321.273723,-1216185.059093,-1494023.858788,-1707111.979379,-2173748.275488,-3572988.220809,-2627091.005694,-2633620.039656,-2482932.982794,-2481285.569821,-57453.46039,-2547570.472666,-2524309.280432
0.25390625,-332031.229977,-17659.666259,-1241879.015193,-23546.042865,-1216162.528534,-1493964.850183,-1707546.497291,-2173732.182232,-3572931.357972,-2627067.938694,-2633544.401353,-2482869.146212,-2482377.765462,-57594.544601,-2547492.688595,-2524221.303966
0.2578125,-332265.655072,-18014.254333,-1242107.539428,-23758.473844,-1216141.607301,-1493921.398392,-1708229.924229,-2173715.016093,-3572880.932436,-2627038.434391,-2633482.174096,-2482817.111351,-2483175.454518,-57999.55821,-2547413.295199,-2524142.983454
0.26171875,-332457.164819,-17994.942426,-1242356.448454,-23756.864519,-1216155.018348,-1493912.815322,-1708893.502819,-2173730.036465,-3572864.302738,-2627057.746298,-2633469.299492,-2482798.335886,-2483724.234548,-58172.292491,-2547384.327338,-2524109.724058
0.265625,-332487.742005,-18018.009426,-1242485.730944,-23741.307705,-1216148.044604,-1493881.701694,-1709234.143404,-2173727.354256,-3572831.579784,-2627060.428507,-2633439.795189,-2482762.394281,-2484098.134529,-58049.447304,-2547359.114571,-2524070.563802
0.26953125,-332541.386192,-18411.221315,-1242581.217597,-23936.572544,-1216149.653929,-1493872.04574,-1709473.396477,-2173735.400884,-3572821.923831,-2627050.772554,-2633412.436654,-2482747.91035,-2484419.463208,-58116.502537,-2547343.557756,-2524046.960359
0.2734375,-332784.9308,-18809.26118,-1242809.20539,-24169.388314,-1216162.528534,-1493882.774577,-1709956.194157,-2173752.567023,-3572825.678924,-2627044.335251,-2633401.171374,-2482751.665443,-2484703.240955,-58494.157612,-2547325.318733,-2524034.622197
0.27734375,-333037.594919,-18861.832483,-1243083.863626,-24214.449431,-1216132.48779,-1493845.760089,-1710501.219094,-2173725.208488,-3572779.544923,-2627012.685181,-2633358.792467,-2482705.531443,-2484896.360027,-58746.285289,-2547267.919453,-2523983.660219
0.28125,-333123.425618,-18837.692599,-1243235.140232,-24179.044268,-1216150.726813,-1493851.660949,-1710746.373027,-2173746.666163,-3572777.399156,-2627035.752182,-2633363.084002,-2482704.458559,-2485028.861168,-58647.579986,-2547275.966081,-2523984.196661
0.28515625,-333152.393478,-19165.995022,-1243301.659024,-24333.539526,-1216160.919209,-1493857.025368,-1710825.229982,-2173763.832303,-3572781.690691,-2627035.752182,-2633353.428048,-2482707.67721,-2485145.269054,-58643.824893,-2547280.257616,-2523984.196661
0.2890625,-333374.480411,-19596.221399,-1243490.486561,-24577.084133,-1216138.925092,-1493839.859228,-1711142.803567,-2173748.81193,-3572758.087249,-2626992.30039,-2633310.512699,-2482680.855117,-2485279.37952,-58987.684129,-2547236.269383,-2523949.32794
0.29296875,-333656.648833,-19719.603028,-1243751.73375,-24664.524158,-1216116.394534,-1493818.937995,-1711592.341851,-2173730.572907,-3572724.291411,-2626960.65032,-2633277.253303,-2482650.814372,-2485357.163591,-59306.330598,-2547191.744708,-2523912.849893
0.296875,-333807.92544,-19697.07247,-1243915.884962,-24631.264762,-1216091.718208,-1493786.215041,-1711802.627063,-2173709.115232,-3572684.594713,-2626935.437552,-2633243.993907,-2482612.190558,-2485393.641638,-59264.488133,-2547156.339545,-2523877.44473
0.30078125,-333881.417976,-20021.083357,-1243972.747799,-24779.322717,-1216114.785208,-1493806.063391,-1711781.70583,-2173738.083093,-3572702.297294,-2626944.557064,-2633247.749001,-2482626.138047,-2485430.119685,-59251.613528,-2547176.724336,-2523895.147311
0.3046875,-334120.134606,-20515.682759,-1244121.342197,-25052.908069,-1216139.997976,-1493834.494809,-1711952.830786,-2173767.587396,-3572723.218527,-2626944.557064,-2633248.821884,-2482649.741489,-2485499.320686,-59580.452392,-2547179.942987,-2523910.704125
0.30859375,-334438.244633,-20728.113738,-1244357.91306,-25190.773629,-1216151.799697,-1493849.515182,-1712317.611255,-2173781.534884,-3572727.510062,-2626941.874855,-2633248.821884,-2482656.178791,-2485578.17764,-59962.935443,-2547167.604824,-2523911.240567
0.3125,-334620.634868,-20684.661947,-1244518.84562,-25156.977791,-1216143.753069,-1493838.249903,-1712503.220141,-2173782.071326,-3572708.734597,-2626938.119762,-2633238.093047,-2482635.794,-2485600.708199,-59970.982071,-2547152.584452,-2523897.293079
0.31640625,-334665.695985,-20915.33195,-1244544.058388,-25255.146653,-1216141.07086,-1493833.421926,-1712422.217419,-2173789.581512,-3572699.615085,-2626931.146017,-2633220.926907,-2482625.601605,-2485595.880222,-59902.853954,-2547150.438684,-2523893.001544
0.3203125,-334798.733568,-21342.339676,-1244355.767292,-25453.093702,-1215495.194852,-1493198.811197,-1712112.690462,-2173153.361458,-3572059.103496,-2626262.203009,-2632555.738992,-2481980.262039,-2485036.371355,-60116.894259,-2546493.833839,-2523241.224675
0.32421875,-333683.470927,-20310.225524,-1238601.891828,-24143.639105,-1203764.284106,-1481581.089685,-1704697.454536,-2161499.161899,-3560432.262472,-2614466.382798,-2620828.583339,-2470250.960618,-2472850.021464,-59233.374504,-2534823.541024,-2511582.733581
0.328125,-335014.383199,-21198.036814,-1242059.796102,-25060.418255,-1211262.668522,-1489117.561474,-1708773.339841,-2168943.902128,-3567937.08419,-2621941.163771,-2628396.168756,-2477833.566407,-2478375.909135,-60137.815492,-2542374.496743,-2519098.284137
0.33203125,-335889.856325,-22142.710941,-1244536.548202,-25886.53873,-1216194.715046,-1493989.526509,-1711734.498946,-2173854.490978,-3572808.512784,-2626889.303552,-2633296.028769,-2482744.691699,-2483569.73929,-60775.644872,-2547247.534662,-2524009.409429
0.3359375,-336117.844119,-22730.114785,-1244577.854225,-26196.60213,-1216164.674302,-1493939.100973,-1711758.102388,-2173837.324838,-3572755.405039,-2626843.705993,-2633220.926907,-2482688.365303,-2484150.16939,-61064.787038,-2547172.432801,-2523968.103405
0.33984375,-336478.333053,-23138.883488,-1244752.197832,-26438.00097,-1216173.793813,-1493938.02809,-1712070.847997,-2173852.345211,-3572746.821969,-2626836.195807,-2633198.396349,-2482677.636466,-2484588.442396,-61544.366067,-2547133.808986,-2523952.546591
0.34375,-336778.204057,-23205.40228,-1244930.296532,-26474.479017,-1216176.476023,-1493926.762811,-1712363.745256,-2173863.074048,-3572725.364295,-2626839.9509,-2633184.44886,-2482657.251675,-2484863.637073,-61747.141093,-2547104.304684,-2523934.844009
0.34765625,-336926.798454,-23397.98491,-1244978.039858,-26547.971552,-1216165.747185,-1493905.841578,-1712363.745256,-2173860.92828,-3572699.615085,-2626827.612737,-2633154.944558,-2482630.429581,-2485009.012819,-61717.100348,-2547081.774125,-2523911.777009
0.3515625,-337142.984527,-23947.837823,-1245024.173859,-26830.676416,-1216161.455651,-1493903.159368,-1712352.479977,-2173865.219815,-3572690.495573,-2626804.009295,-2633123.830929,-2482620.237186,-2485132.394449,-61927.922002,-2547057.634241,-2523895.683753
0.35546875,-337560.872741,-24469.259318,-1245213.537838,-27128.401652,-1216162.528534,-1493910.669555,-1712623.38312,-2173871.120676,-3572688.886248,-2626780.942295,-2633104.519022,-2482618.62786,-2485261.140497,-62437.541775,-2547027.057055,-2523881.736264
0.359375,-337985.734699,-24667.206367,-1245432.942561,-27239.981561,-1216134.097115,-1493883.847461,-1712929.691426,-2173847.517234,-3572646.50734,-2626742.854922,-2633064.285882,-2482579.467604,-2485317.466893,-62774.96371,-2546971.803543,-2523839.357357
0.36328125,-338262.002261,-24902.167905,-1245525.747004,-27332.786004,-1216143.753069,-1493887.066112,-1712943.102472,-2173864.683374,-3572644.361573,-2626747.146457,-2633058.385021,-2482577.321837,-2485326.049963,-62816.806175,-2546970.194217,-2523842.039566
0.3671875,-338536.660497,-25508.347214,-1245564.907261,-27634.266333,-1216168.429395,-1493914.424648,-1712861.026867,-2173896.869886,-3572666.355689,-2626749.292225,-2633058.921463,-2482597.170186,-2485351.799172,-63029.773596,-2546980.386612,-2523859.205706
0.37109375,-339002.828479,-26142.957943,-1245734.42289,-27989.390849,-1216144.289511,-1493900.477159,-1713048.78152,-2173879.167304,-3572639.533596,-2626694.575154,-2633011.178137,-2482574.103185,-2485387.740777,-63568.897673,-2546929.961077,-2523826.482752
0.375,-339487.771927,-26440.683179,-1245951.145405,-28163.198014,-1216117.467417,-1493879.019484,-1713338.99657,-2173859.318955,-3572603.055549,-2626650.586921,-2632968.79923,-2482539.770906,-2485389.886545,-64004.488469,-2546873.634681,-2523791.077589
0.37890625,-339825.730303,-26661.697228,-1246051.460034,-28252.783805,-1216133.024232,-1493894.576299,-1713363.136454,-2173882.385955,-3572610.029293,-2626661.8522,-2632973.090765,-2482542.453115,-2485354.481382,-64095.147144,-2546876.853332,-2523801.269984
0.3828125,-340120.77333,-27256.074817,-1246068.089732,-28538.707321,-1216143.753069,-1493904.232252,-1713217.760708,-2173900.624979,-3572615.930154,-2626652.196247,-2632960.752602,-2482548.353976,-2485358.772917,-64275.928053,-2546876.853332,-2523809.316612
0.38671875,-340603.034568,-27969.006058,-1246198.445105,-28926.018348,-1216143.753069,-1493916.033973,-1713321.293988,-2173907.598723,-3572617.539479,-2626621.61906,-2632936.076276,-2482551.572627,-2485391.495871,-64804.859734,-2546850.031239,-2523801.269984
0.390625,-341148.059505,-28382.602737,-1246408.730317,-29164.198537,-1216145.362394,-1493927.299252,-1713601.853085,-2173917.254676,-3572611.638619,-2626604.989362,-2632921.592345,-2482548.353976,-2485396.860289,-65333.254973,-2546820.526936,-2523795.369124
0.39453125,-341561.119743,-28619.173601,-1246529.429737,-29267.731818,-1216153.409022,-1493933.736555,-1713667.835434,-2173932.275049,-3572608.419968,-2626604.989362,-2632918.910136,-2482542.989557,-2485373.793289,-65492.578208,-2546811.407424,-2523797.514891
0.3984375,-341871.719583,-29179.21891,-1246531.039063,-29535.952751,-1216159.846325,-1493937.491648,-1713505.829991,-2173946.222537,-3572605.737758,-2626591.578316,-2632900.671113,-2482542.453115,-2485340.533893,-65647.609907,-2546803.897238,-2523797.514891
0.40234375,-342338.96045,-29924.873105,-1246616.33332,-29936.138384,-1216170.575162,-1493961.631532,-1713536.407177,-2173966.607328,-3572619.148805,-2626572.80285,-2632888.33295,-2482556.937046,-2485356.090707,-66141.136425,-2546790.486192,-2523804.488636
0.40625,-342911.880363,-30422.691157,-1246807.306624,-30220.452573,-1216151.263255,-1493951.975578,-1713796.045041,-2173955.342049,-3572595.008921,-2626528.814617,-2632850.782019,-2482533.333604,-2485378.621266,-66724.785176,-2546736.842005,-2523776.057217
0.41015625,-343391.995834,-30687.156998,-1246947.854393,-30342.224877,-1216146.435278,-1493946.61116,-1713904.406298,-2173957.487817,-3572575.697014,-2626515.940012,-2632832.006554,-2482514.558138,-2485335.705916,-66963.501807,-2546711.629237,-2523764.255496
0.4140625,-343764.822932,-31253.639609,-1246958.583231,-30605.081392,-1216141.07086,-1493942.856067,-1713744.546621,-2173963.388677,-3572564.431735,-2626493.945896,-2632805.18446,-2482501.147092,-2485286.353265,-67132.480995,-2546696.072423,-2523756.208868
0.41796875,-344286.780868,-32100.144875,-1247033.14865,-31046.573048,-1216144.289511,-1493956.803555,-1713719.333854,-2173975.72684,-3572570.869037,-2626464.441593,-2632782.653902,-2482506.51151,-2485302.982962,-67631.371931,-2546674.078306,-2523753.526658
0.421875,-344115.655913,-31953.696245,-1244910.984625,-30733.290998,-1211601.699782,-1489457.129175,-1711060.191519,-2169466.932948,-3568057.783611,-2621877.863631,-2628215.924289,-2477959.093804,-2480799.017048,-67635.663466,-2542113.785996,-2519228.639511
0.42578125,-343055.646784,-30652.824718,-1240427.403501,-29482.845006,-1203498.745382,-1481488.285242,-1705250.5261,-2161422.987154,-3560062.654026,-2613711.072649,-2620161.786099,-2469901.200521,-2471248.742491,-66581.018756,-2534113.291992,-2511213.661577
0.4296875,-346008.759261,-33584.479521,-1246428.042224,-31734.291522,-1215387.370037,-1493337.213199,-1712254.847557,-2173235.437064,-3571890.66075,-2625600.233746,-2632065.967568,-2481838.104944,-2481981.871364,-68728.395549,-2545972.948786,-2523077.073464
0.43359375,-346751.731247,-34714.762534,-1246864.705904,-32376.948878,-1216148.581046,-1494069.456347,-1712703.8494,-2174009.522678,-3572618.075921,-2626341.059964,-2632766.024204,-2482568.202325,-2483419.535568,-69406.994511,-2546659.594376,-2523825.409868
0.4375,-347503.822744,-35577.361056,-1247035.294418,-32849.017721,-1216169.502279,-1494083.940278,-1712970.461007,-2174042.782073,-3572619.685247,-2626333.013336,-2632741.88432,-2482568.202325,-2483902.333248,-70188.590311,-2546611.314608,-2523825.409868
0.44140625,-348238.748102,-36119.167342,-1247232.168583,-33130.649701,-1216130.878464,-1494038.342719,-1713246.192127,-2174015.95998,-3572555.848665,-2626283.660684,-2632673.756203,-2482507.047952,-2484178.600809,-70729.860154,-2546521.728816,-2523768.010589
0.4453125,-348819.178202,-36757.533164,-1247299.223816,-33428.911379,-1216111.030115,-1494009.9113,-1713223.125127,-2174005.231143,-3572518.834176,-2626250.401288,-2632623.867109,-2482467.351254,-2484324.512997,-71014.174344,-2546470.766839,-2523730.9961
0.44921875,-349424.82107,-37733.857362,-1247341.602724,-33921.901455,-1216116.394534,-1494018.49437,-1713171.626708,-2174021.324399,-3572518.297734,-2626225.724962,-2632593.826365,-2482467.351254,-2484444.139534,-71503.409326,-2546442.871862,-2523725.095239
0.453125,-350198.370242,-38662.438233,-1247508.972586,-34424.011043,-1216090.108882,-1494000.255346,-1713404.442478,-2174002.548933,-3572486.111222,-2626162.424822,-2632533.208434,-2482434.6283,-2484555.719442,-72280.713592,-2546366.697117,-2523681.643448
0.45703125,-350927.931181,-39207.46317,-1247692.972147,-34713.689651,-1216079.916487,-1493995.42737,-1713683.392249,-2174001.47605,-3572461.434896,-2626131.847636,-2632501.021922,-2482409.951974,-2484620.092466,-72864.362343,-2546314.662256,-2523656.43068
0.4609375,-351460.081513,-39703.135455,-1247740.179031,-34943.28677,-1216090.645324,-1494002.401114,-1713666.226109,-2174025.615934,-3572455.534036,-2626134.529845,-2632489.756643,-2482408.342649,-2484645.841676,-73099.323881,-2546303.933418,-2523659.11289
0.46484375,-351939.660542,-40521.209302,-1247712.284054,-35349.909705,-1216091.718208,-1494005.619765,-1713537.480061,-2174037.417655,-3572452.851826,-2626113.608612,-2632462.398107,-2482405.660439,-2484685.538374,-73446.401768,-2546283.012185,-2523654.821355
0.46875,-352583.927224,-41368.25101,-1247807.770706,-35809.640385,-1216109.420789,-1494034.051184,-1713686.6109,-2174061.557539,-3572467.335757,-2626094.296705,-2632449.523503,-2482420.14437,-2484766.541096,-74112.662567,-2546261.018069,-2523661.795099
0.47265625,-353243.75072,-41870.897039,-1247957.437987,-36087.517272,-1216101.374161,-1494031.905416,-1713958.586926,-2174061.557539,-3572449.096733,-2626069.083937,-2632425.383619,-2482404.587555,-2484844.325166,-74692.556225,-2546214.347626,-2523641.94675
0.4765625,-353754.97982,-42263.572486,-1248004.644871,-36265.615972,-1216078.843603,-1494007.229091,-1713981.117485,-2174049.219376,-3572413.69157,-2626040.652518,-2632386.223362,-2482367.036625,-2484828.23191,-74915.1796,-2546168.213626,-2523609.223796
0.48046875,-354208.809639,-43019.955518,-1247963.338848,-36634.687976,-1216072.942742,-1494003.473998,-1713823.940018,-2174053.510911,-3572403.499175,-2626011.148216,-2632353.500408,-2482355.771346,-2484823.940375,-75197.884464,-2546145.146626,-2523598.494959
0.484375,-354842.347484,-43906.157482,-1248030.930523,-37111.584796,-1216076.697836,-1494019.567254,-1713905.479181,-2174066.385515,-3572408.327151,-2625981.643913,-2632332.042734,-2482360.599322,-2484869.001492,-75830.885867,-2546116.715207,-2523596.349191
0.48828125,-355540.794795,-44496.779978,-1248178.988478,-37440.960102,-1216097.082626,-1494048.535114,-1714172.090789,-2174093.744051,-3572419.055989,-2625977.88882,-2632332.579176,-2482373.473927,-2484885.63119,-76483.199177,-2546097.403299,-2523602.786494
0.4921875,-356096.548569,-44872.825727,-1248247.116595,-37617.449476,-1216085.280905,-1494035.124068,-1714242.364674,-2174092.134725,-3572392.770337,-2625959.649796,-2632305.757082,-2482348.797601,-2484874.902353,-76755.175204,-2546058.779485,-2523584.54747
0.49609375,-356515.509667,-45541.768735,-1248186.498664,-37937.705271,-1216089.035998,-1494038.342719,-1714066.948183,-2174107.691539,-3572390.088128,-2625944.092982,-2632285.908733,-2482342.896741,-2484867.928608,-76980.480788,-2546047.514206,-2523586.693238
0.5,-357058.925278,-46379.154489,-1248197.227502,-38384.024904,-1216117.467417,-1494076.966533,-1714072.312602,-2174144.706028,-3572418.519547,-2625941.947215,-2632287.518059,-2482371.864602,-2484911.916841,-77521.750632,-2546046.441322,-2523609.223796
0.50390625,-357670.469006,-46937.054031,-1248300.760782,-38699.452722,-1216103.519929,-1494071.602115,-1714306.737698,-2174135.050074,-3572394.379663,-2625903.3234,-2632252.112896,-2482353.625578,-2484945.176237,-78144.559639,-2545993.870019,-2523582.938145
0.5078125,-358140.928524,-47182.207964,-1248346.358341,-38817.469933,-1216080.98937,-1494047.462231,-1714396.859932,-2174121.639028,-3572356.29229,-2625878.110633,-2632219.389942,-2482320.902624,-2484937.666051,-78390.786456,-2545950.418228,-2523552.360958
0.51171875,-358453.13769,-47656.959016,-1248252.481014,-39037.94754,-1216064.896114,-1494031.368975,-1714215.006139,-2174116.811051,-3572332.688848,-2625851.288539,-2632184.52122,-2482294.616973,-2484934.983842,-78500.220597,-2545921.986809,-2523533.049051
0.515625,-358862.442835,-48383.837746,-1248202.59192,-39421.503475,-1216061.141021,-1494034.051184,-1714155.461091,-2174120.029702,-3572328.933755,-2625820.174911,-2632156.089801,-2482287.643228,-2484991.310238,-78902.015555,-2545893.55539,-2523519.638004
0.51953125,-359341.485422,-48860.198123,-1248157.530803,-39696.161711,-1215814.377763,-1493798.016762,-1714221.979883,-2173881.849513,-3572080.024729,-2625548.735326,-2631892.160403,-2482038.19776,-2484800.873375,-79447.576934,-2545610.850526,-2523265.901001
0.5234375,-356345.457595,-45546.06027,-1242264.180453,-37417.893102,-1204773.867699,-1482848.165375,-1707035.268192,-2162918.050637,-3561116.762294,-2614459.409053,-2620848.96813,-2470981.594441,-2473517.891588,-77091.524254,-2534619.156673,-2512287.618195
0.52734375,-358190.817617,-47390.347408,-1244328.408757,-38535.301511,-1209722.543922,-1487857.459528,-1709171.379706,-2167838.831882,-3566101.380122,-2619377.508089,-2625867.381795,-2476015.56492,-2476412.531902,-78208.396221,-2539648.835617,-2517275.991115
0.53125,-360677.762112,-50250.655443,-1247592.121076,-40384.416626,-1216062.213905,-1494145.09465,-1713034.834031,-2174144.706028,-3572386.333035,-2625722.006049,-2632174.328825,-2482352.552694,-2482910.452236,-80176.064989,-2545916.62239,-2523587.766121
0.53515625,-361191.136979,-50870.245799,-1247620.552495,-40738.468258,-1216048.802858,-1494115.053906,-1713245.655685,-2174145.778912,-3572345.563453,-2625695.720398,-2632119.075313,-2482311.246671,-2483559.010453,-80787.072276,-2545835.083227,-2523558.798261
0.5390625,-361665.888031,-51129.883662,-1247684.389077,-40885.45333,-1216072.942742,-1494123.100534,-1713498.319804,-2174179.574749,-3572341.80836,-2625717.714514,-2632116.929545,-2482309.100903,-2483964.560505,-81157.753606,-2545810.406901,-2523562.553354
0.54296875,-361981.315849,-51454.430992,-1247633.427099,-41028.146866,-1216069.187649,-1494102.179301,-1713471.497711,-2174184.939168,-3572317.132034,-2625714.495863,-2632092.253219,-2482283.888135,-2484212.396647,-81240.902095,-2545782.511924,-2523538.949911
0.546875,-362334.831039,-52148.586768,-1247568.517633,-41377.906964,-1216050.412184,-1494079.112301,-1713406.588245,-2174173.137447,-3572288.164173,-2625673.18984,-2632043.437009,-2482254.383833,-2484402.83351,-81530.580703,-2545736.914365,-2523503.544748
0.55078125,-362886.293278,-52849.179846,-1247648.447472,-41770.045968,-1216069.724091,-1494104.86151,-1713629.748062,-2174199.95954,-3572303.720987,-2625666.752537,-2632036.999707,-2482267.794879,-2484569.66693,-82143.197315,-2545717.602458,-2523508.909167
0.5546875,-363444.729262,-53207.523013,-1247772.365543,-41973.357436,-1216064.896114,-1494101.106417,-1713921.572437,-2174201.032424,-3572283.872638,-2625649.049955,-2632016.614916,-2482247.410088,-2484668.372234,-82617.411925,-2545672.004899,-2523487.451492
0.55859375,-363835.795383,-53524.560156,-1247776.657078,-42114.978089,-1216063.286789,-1494091.986906,-1713927.473298,-2174206.396843,-3572268.852266,-2625643.149095,-2632002.130986,-2482233.4626,-2484681.246839,-82750.449508,-2545653.229434,-2523476.186213
0.5625,-364180.191062,-54184.920095,-1247709.601845,-42441.134744,-1216078.307161,-1494110.762371,-1713803.555227,-2174232.682494,-3572281.726871,-2625642.076211,-2631991.402148,-2482242.582112,-2484716.652002,-82988.093256,-2545654.838759,-2523485.305725
0.56640625,-364701.076114,-54906.970847,-1247766.464682,-42839.711051,-1216045.047765,-1494088.231813,-1713948.930973,-2174208.006168,-3572246.321708,-2625581.994722,-2631935.612194,-2482209.322716,-2484786.389445,-83564.231821,-2545585.101317,-2523441.317492
0.5703125,-365259.512098,-55302.328503,-1247884.481893,-43071.990379,-1216038.074021,-1494086.622487,-1714226.271418,-2174207.469726,-3572228.619126,-2625559.464164,-2631915.763845,-2482196.984553,-2484834.669213,-84085.116873,-2545544.868177,-2523424.687794
0.57421875,-365668.2808,-55561.429925,-1247907.012452,-43188.398264,-1216057.385928,-1494100.569975,-1714259.530814,-2174233.755378,-3572232.374219,-2625573.411652,-2631922.737589,-2482199.666762,-2484816.966631,-84236.39348,-2545543.795293,-2523434.343747
0.578125,-365997.656107,-56162.781258,-1247834.056358,-43481.831966,-1216047.729975,-1494093.059789,-1714098.598254,-2174233.755378,-3572218.42673,-2625548.735326,-2631894.842612,-2482186.792158,-2484824.476817,-84422.002366,-2545521.801176,-2523422.542026
0.58203125,-366483.135996,-56902.534592,-1247857.123358,-43885.772691,-1216057.385928,-1494114.517464,-1714159.216185,-2174250.921518,-3572227.0098,-2625532.64207,-2631882.504449,-2482196.984553,-2484877.584562,-84943.42386,-2545503.562153,-2523424.151352
0.5859375,-367022.260073,-57330.615202,-1247963.338848,-44139.509695,-1216045.584207,-1494109.689487,-1714412.953188,-2174247.702867,-3572207.161451,-2625505.283535,-2631855.145914,-2482179.818413,-2484885.63119,-85493.276774,-2545457.964594,-2523403.230119
0.58984375,-367425.127915,-57528.562251,-1247999.280453,-44227.486161,-1216060.068138,-1494120.418325,-1714486.445723,-2174268.624099,-3572207.697893,-2625516.012372,-2631861.046775,-2482181.964181,-2484890.459167,-85668.156823,-2545453.673059,-2523412.349631
0.59375,-367712.124313,-58027.453187,-1247913.986196,-44463.520582,-1216048.802858,-1494109.153045,-1714309.419907,-2174266.478332,-3572192.141079,-2625490.799605,-2631829.933146,-2482162.652273,-2484890.459167,-85785.10115,-2545430.069617,-2523396.256375
0.59765625,-368139.132039,-58746.285289,-1247901.648033,-44849.758726,-1216044.511324,-1494115.053906,-1714304.055489,-2174269.696983,-3572188.922428,-2625459.685976,-2631804.183937,-2482157.824297,-2484923.182121,-86234.639434,-2545402.17464,-2523384.454654
0.6015625,-368672.891697,-59229.082969,-1248000.889778,-45136.218683,-1216035.928254,-1494116.12679,-1714542.235678,-2174268.087657,-3572173.902055,-2625431.790999,-2631781.653378,-2482147.095459,-2484938.738935,-86809.168674,-2545360.332174,-2523368.361398
0.60546875,-369105.263842,-59422.202041,-1248057.752616,-45234.923987,-1216027.345184,-1494107.54372,-1714658.107121,-2174266.478332,-3572151.371497,-2625421.062162,-2631766.096564,-2482126.710668,-2484924.255004,-87040.91156,-2545329.754988,-2523353.341026
0.609375,-369397.624659,-59853.501302,-1247982.114313,-45436.089687,-1216022.517207,-1494100.033534,-1714488.055049,-2174269.696983,-3572137.96045,-2625404.968906,-2631744.102448,-2482110.617412,-2484895.823585,-87130.497352,-2545313.12529,-2523343.14863
0.61328125,-369781.717036,-60555.167264,-1247941.881173,-45802.479482,-1215994.085788,-1494080.185185,-1714407.588769,-2174248.77575,-3572109.529031,-2625351.861161,-2631694.749796,-2482083.795319,-2484935.520284,-87506.006659,-2545265.918406,-2523308.279909
0.6171875,-370275.779995,-61064.250596,-1248015.373709,-46102.886927,-1216024.126533,-1494118.808999,-1714600.707841,-2174283.644472,-3572132.05959,-2625359.371347,-2631705.478633,-2482110.080971,-2484968.243238,-88068.734177,-2545263.236196,-2523328.128258
0.62109375,-370208.724762,-60725.755778,-1247474.640307,-45903.330553,-1214866.484984,-1492966.531869,-1714020.277741,-2173137.804644,-3570966.907855,-2624194.756054,-2630537.108247,-2480935.273282,-2483832.595805,-87984.512804,-2544085.746299,-2522167.8045
0.625,-365432.246379,-55793.709254,-1240864.603623,-42798.941469,-1202978.396771,-1481193.778657,-1705803.061223,-2161337.156455,-3559179.670713,-2612247.659236,-2618664.040406,-2469047.185069,-2471329.208771,-84217.081573,-2532291.535412,-2510364.474102
0.62890625,-369442.685776,-60138.888376,-1245247.333675,-45411.949803,-1212316.240348,-1490549.324816,-1710846.687656,-2170614.382102,-3568521.805825,-2621572.091767,-2628064.647682,-2478477.296648,-2478872.117862,-87151.418585,-2541671.221455,-2519712.510075
0.6328125,-371230.110077,-62059.350259,-1247150.092977,-46640.93812,-1216052.02151,-1494230.388907,-1713329.877058,-2174333.533565,-3572203.406358,-2625320.747533,-2631767.169448,-2482190.010809,-2483149.705309,-88734.994976,-2545328.682104,-2523422.005584
0.63671875,-371258.005054,-61847.455722,-1247069.626697,-46556.716747,-1216074.015626,-1494222.342279,-1713523.532572,-2174365.720077,-3572188.385986,-2625363.662882,-2631768.778773,-2482173.381111,-2483813.82034,-88806.341744,-2545305.615104,-2523428.442887
0.640625,-371036.454563,-61572.797486,-1246858.268602,-46400.075722,-1216058.995254,-1494176.208279,-1713452.185804,-2174356.064124,-3572146.007078,-2625370.100185,-2631740.347354,-2482125.101343,-2484244.583159,-88502.179206,-2545277.183685,-2523393.574166
0.64453125,-370728.000489,-61541.683858,-1246597.021412,-46385.591791,-1216044.511324,-1494145.631092,-1713317.002453,-2174350.163263,-3572120.257869,-2625366.345092,-2631715.671029,-2482095.59704,-2484591.661047,-88293.503319,-2545258.944661,-2523361.924095
0.6484375,-370508.595766,-61410.792042,-1246455.40076,-46360.915465,-1216050.948626,-1494144.021767,-1713460.768874,-2174358.746333,-3572114.89345,-2625378.683255,-2631715.134587,-2482090.232621,-2484913.526167,-88332.663576,-2545249.82515,-2523350.658816
0.65234375,-370207.651878,-60837.872128,-1246348.112386,-46102.350486,-1216055.776603,-1494131.147162,-1713702.167714,-2174360.8921,-3572098.800194,-2625401.213813,-2631721.035447,-2482071.457156,-2485154.388565,-88182.996295,-2545242.314964,-2523332.956235
0.65625,-369661.554058,-60104.019654,-1246114.760174,-45717.721667,-1216055.240161,-1494105.397952,-1713670.517644,-2174359.819217,-3572080.024729,-2625433.936767,-2631730.691401,-2482050.535923,-2485331.414381,-87618.659451,-2545257.871778,-2523320.08163
0.66015625,-368982.418654,-59633.023695,-1245797.723031,-45472.567734,-1216051.485068,-1494084.476719,-1713482.226548,-2174357.673449,-3572068.223008,-2625448.957139,-2631731.227843,-2482035.515551,-2485489.664732,-87080.071816,-2545272.89215,-2523309.352792
0.6640625,-368383.213089,-59141.106503,-1245580.464075,-45260.136755,-1216071.869859,-1494097.351324,-1713550.354666,-2174378.05824,-3572081.634054,-2625482.752977,-2631758.049936,-2482048.926598,-2485695.658409,-86813.460209,-2545301.323569,-2523320.08163
0.66796875,-367723.926034,-58214.134957,-1245416.312863,-44827.76461,-1216080.452929,-1494089.841138,-1713772.441598,-2174381.813333,-3572077.878961,-2625518.694582,-2631784.872029,-2482042.489295,-2485891.996132,-86444.388204,-2545319.562592,-2523315.790095
0.671875,-366816.802837,-57013.578059,-1245142.191069,-44212.465788,-1216091.181766,-1494077.502975,-1713761.176319,-2174389.859961,-3572074.123868,-2625572.338769,-2631820.813634,-2482035.515551,-2486038.444762,-85622.559264,-2545360.868616,-2523319.545188
0.67578125,-365712.269033,-56025.988582,-1244744.687646,-43701.236689,-1216098.15551,-1494062.482603,-1713534.26141,-2174395.22438,-3572073.050985,-2625614.717676,-2631842.271309,-2482031.760458,-2486183.284066,-84722.409811,-2545409.148384,-2523321.154513
0.6796875,-364648.504811,-55071.658501,-1244426.577619,-43244.72466,-1216118.003859,-1494065.164812,-1713517.631712,-2174407.026101,-3572084.316264,-2625659.778793,-2631878.749356,-2482041.952853,-2486389.814185,-84076.533804,-2545457.428152,-2523331.346909
0.68359375,-363544.507449,-53708.023275,-1244183.569453,-42595.09356,-1216127.659813,-1494058.191068,-1713711.287226,-2174409.171868,-3572088.607799,-2625710.204328,-2631918.446054,-2482041.416412,-2486572.20442,-83407.054354,-2545493.369757,-2523332.419793
0.6875,-362196.965479,-51967.269417,-1243855.803472,-41710.500921,-1216165.747185,-1494065.701254,-1713724.16183,-2174439.749055,-3572111.138357,-2625807.836748,-2631994.084358,-2482062.337644,-2486727.772561,-82280.526433,-2545579.736898,-2523364.069863
0.69140625,-360591.931414,-50371.891304,-1243382.125304,-40887.599097,-1216182.376883,-1494051.217324,-1713471.497711,-2174450.477892,-3572115.966334,-2625877.037749,-2632042.900567,-2482061.264761,-2486891.38733,-80974.826929,-2545659.130294,-2523375.335142
0.6953125,-358980.996487,-48854.833705,-1242952.435369,-40143.017786,-1216192.032837,-1494040.488486,-1713374.401733,-2174449.405008,-3572124.549404,-2625931.218377,-2632086.352359,-2482065.019854,-2487076.459775,-79885.313497,-2545725.112644,-2523379.090235
0.69921875,-357350.213212,-46974.068519,-1242619.841411,-39233.748821,-1216189.887069,-1494017.421486,-1713527.824107,-2174435.45752,-3572115.966334,-2625985.399006,-2632126.585499,-2482053.218133,-2487162.826915,-78847.834927,-2545772.85597,-2523372.652933
0.703125,-355512.363376,-44660.931189,-1242238.431244,-38069.66997,-1216224.755791,-1494013.129951,-1713580.931852,-2174455.842311,-3572135.278241,-2626092.150938,-2632211.343314,-2482065.019854,-2487198.76852,-77390.858816,-2545869.415506,-2523397.329259
0.70703125,-353464.76477,-42493.706047,-1241730.957238,-36953.870887,-1216247.822791,-1494001.32823,-1713358.844919,-2174466.571148,-3572148.689288,-2626185.491822,-2632282.690082,-2482074.139365,-2487205.742264,-75712.868656,-2545976.703879,-2523418.250491
0.7109375,-351509.434165,-40616.159513,-1241290.002023,-36013.488294,-1216263.379605,-1493994.354486,-1713237.609057,-2174469.253358,-3572166.391869,-2626251.474172,-2632340.625804,-2482086.477528,-2487213.252451,-74312.755384,-2546068.435439,-2523430.052212
0.71484375,-349798.184609,-38702.134931,-1241045.384532,-35084.907423,-1216283.764396,-1493995.963811,-1713433.94678,-2174470.862683,-3572183.558009,-2626316.92008,-2632408.753921,-2482105.252994,-2487226.663497,-73216.268208,-2546147.292393,-2523443.999701
0.71875,-348247.331172,-36685.649954,-1240904.836763,-34074.250945,-1216300.930536,-1493995.42737,-1713642.622667,-2174472.472009,-3572195.35973,-2626389.876174,-2632479.564247,-2482111.690296,-2487233.1008,-72006.591798,-2546228.295115,-2523453.655655
0.72265625,-345864.992841,-34130.577341,-1238224.236753,-32478.336391,-1210596.944165,-1488319.872417,-1709964.240785,-2168794.234847,-3566535.898034,-2620714.321222,-2626818.493225,-2476394.82932,-2481428.7998,-70006.200076,-2540623.550489,-2517780.24647
0.7265625,-343640.368419,-31956.914897,-1235000.757575,-31006.339908,-1204615.080907,-1482467.828091,-1705313.289799,-2162842.948776,-3560672.588429,-2614699.198568,-2620940.699689,-2470487.531482,-2474209.901596,-68198.927426,-2534827.832559,-2511893.333422
0.73046875,-345020.633342,-33270.661029,-1240077.106962,-32317.403831,-1216007.496835,-1493811.427809,-1712366.427465,-2174147.388237,-3572017.26103,-2626114.145054,-2632393.733548,-2481940.565341,-2485264.89559,-69448.836976,-2546227.758673,-2523259.463699
0.734375,-344428.937963,-32359.246297,-1240409.700919,-31895.224082,-1216406.073142,-1494172.989627,-1712928.618542,-2174544.355219,-3572384.187267,-2626547.053641,-2632794.455623,-2482306.418694,-2486155.925531,-69048.651343,-2546616.679027,-2523651.066262
0.73828125,-343683.283768,-31473.044333,-1240482.657013,-31419.936588,-1216397.490072,-1494135.975139,-1712991.38224,-2174535.235707,-3572358.9745,-2626570.120641,-2632792.846297,-2482274.768624,-2486428.437999,-68324.991265,-2546627.407864,-2523637.655215
0.7421875,-342983.763574,-30994.001745,-1240526.108804,-31166.199585,-1216417.338421,-1494141.875999,-1712973.679659,-2174553.474731,-3572372.385546,-2626600.697827,-2632813.231088,-2482286.570345,-2486612.43756,-67783.184979,-2546669.786772,-2523651.602704
0.74609375,-342480.044661,-30553.582973,-1240698.306644,-30969.32542,-1216410.901119,-1494133.292929,-1713225.807336,-2174542.745893,-3572361.120267,-2626596.406292,-2632808.939553,-2482276.914391,-2486730.991212,-67576.654861,-2546671.396097,-2523634.973006
0.75,-342007.975818,-29787.543987,-1240927.903763,-30600.253415,-1216431.28591,-1494144.558209,-1713570.739457,-2174556.693382,-3572372.921988,-2626629.665688,-2632840.053182,-2482286.033903,-2486778.734538,-67288.585578,-2546699.291074,-2523643.019634
0.75390625,-341439.347439,-28997.901559,-1241059.868462,-30174.318573,-1216446.842724,-1494148.313302,-1713651.205737,-2174574.395963,-3572381.505058,-2626668.289503,-2632873.849019,-2482291.398322,-2486781.95319,-66684.552036,-2546742.742865,-2523653.212029
0.7578125,-340912.025084,-28668.526252,-1241140.871184,-29986.563919,-1216428.6037,-1494126.319185,-1713571.275898,-2174557.766266,-3572364.338918,-2626655.95134,-2632858.292205,-2482275.305066,-2486784.635399,-66217.847612,-2546757.226796,-2523635.509448
0.76171875,-340666.87115,-28566.065856,-1241365.103884,-29954.377407,-1216474.201259,-1494179.42693,-1713741.32797,-2174601.754499,-3572411.545803,-2626689.747177,-2632902.81688,-2482324.657717,-2486801.801539,-66179.223797,-2546810.870983,-2523677.888355
0.765625,-340583.186219,-28272.632155,-1241691.796981,-29829.922894,-1216480.638561,-1494192.301535,-1714087.869416,-2174604.97315,-3572419.055989,-2626691.356503,-2632916.764369,-2482330.558578,-2486766.396375,-66224.284914,-2546817.308285,-2523677.888355
0.76953125,-340468.38766,-27909.461011,-1241953.580612,-29625.002101,-1216452.207142,-1494159.578581,-1714215.542581,-2174574.932405,-3572384.187267,-2626669.362386,-2632896.91602,-2482294.616973,-2486641.40542,-65971.084353,-2546801.751471,-2523647.311169
0.7734375,-340354.661984,-27987.245081,-1242128.997103,-29635.730938,-1216475.274143,-1494184.791349,-1714113.082184,-2174602.827382,-3572408.863593,-2626682.773433,-2632916.227927,-2482319.829741,-2486503.003419,-65775.283071,-2546840.911727,-2523674.669704
0.77734375,-340482.335148,-28350.416225,-1242404.191781,-29830.995778,-1216494.049608,-1494217.514302,-1714216.079022,-2174624.285057,-3572437.295012,-2626676.872573,-2632924.810997,-2482348.261159,-2486443.994813,-65990.39626,-2546858.077867,-2523692.908727
0.78125,-340779.523942,-28532.270018,-1242787.747715,-29951.158756,-1216492.440282,-1494229.852465,-1714533.652608,-2174624.821499,-3572434.076361,-2626655.414898,-2632914.618601,-2482348.261159,-2486347.435277,-66350.885195,-2546841.448169,-2523687.544309
0.78515625,-341047.744876,-28550.509042,-1243128.388301,-29943.64857,-1216500.48691,-1494241.117745,-1714686.002098,-2174637.159662,-3572427.102617,-2626654.878456,-2632918.373694,-2482348.797601,-2486210.106159,-66413.112451,-2546844.66682,-2523693.445169
0.7890625,-341284.852181,-28953.913326,-1243353.693885,-30116.919293,-1216493.513166,-1494241.117745,-1714579.250166,-2174639.841871,-3572428.711942,-2626632.884339,-2632900.134671,-2482342.360299,-2486077.605018,-66451.199824,-2546841.448169,-2523689.690076
0.79296875,-341738.145559,-29708.15059,-1243649.809796,-30504.230321,-1216486.00298,-1494248.091489,-1714603.39005,-2174637.159662,-3572429.248384,-2626588.896106,-2632868.484601,-2482339.67809,-2485984.800575,-66868.015154,-2546818.381169,-2523680.570564
0.796875,-342394.213962,-30348.66218,-1244066.088684,-30859.354837,-1216475.274143,-1494258.283884,-1714883.412705,-2174635.013894,-3572412.618686,-2626543.298548,-2632840.589624,-2482335.922997,-2485888.777481,-67514.964046,-2546780.293796,-2523667.69596
0.80078125,-343038.480644,-30761.722417,-1244464.12855,-31059.447653,-1216444.696956,-1494236.82621,-1715067.948707,-2174611.946894,-3572370.776221,-2626494.482338,-2632794.992065,-2482301.054275,-2485733.20934,-67908.712376,-2546729.331819,-2523634.436564
0.8046875,-343617.301418,-31465.534146,-1244728.59439,-31382.922099,-1216436.650328,-1494236.82621,-1714961.733217,-2174613.019778,-3572375.604197,-2626461.759384,-2632766.560646,-2482290.325438,-2485566.375919,-68178.542635,-2546707.337702,-2523627.46282
0.80859375,-344359.20052,-32562.021322,-1245022.028091,-31934.384338,-1216440.405421,-1494258.820326,-1714913.989891,-2174626.967266,-3572382.0415,-2626422.062686,-2632738.665669,-2482299.981391,-2485404.370475,-68772.920224,-2546685.880028,-2523632.290796
0.8125,-345329.623858,-33621.49401,-1245446.89005,-32502.476275,-1216485.466538,-1494326.948443,-1715146.805662,-2174683.830104,-3572422.27464,-2626421.526244,-2632752.613157,-2482350.406927,-2485318.539777,-69671.460351,-2546688.562237,-2523672.523936
0.81640625,-346332.770149,-34429.911903,-1245884.626613,-32915.536513,-1216485.466538,-1494341.432374,-1715371.574804,-2174693.486058,-3572420.665314,-2626388.266848,-2632727.40039,-2482347.724718,-2485216.615822,-70387.073801,-2546651.547748,-2523668.232401
0.8203125,-347191.613578,-35359.029217,-1245950.072521,-33336.106936,-1215920.05681,-1493787.824367,-1714966.024752,-2174141.487377,-3571850.964052,-2625787.451957,-2632133.022801,-2481776.950571,-2484538.553302,-70850.559574,-2546059.315927,-2523103.895557
0.82421875,-346089.225541,-34562.949486,-1240254.66922,-32389.823483,-1204347.396415,-1482332.108299,-1707096.959006,-2162658.412773,-3560381.836937,-2614120.914235,-2620533.003871,-2470210.727478,-2472451.981598,-69945.582145,-2534531.716649,-2511610.628558
0.828125,-348706.52541,-37297.193682,-1243771.045658,-34086.052666,-1211325.968662,-1489384.173081,-1710923.398843,-2169595.678997,-3567384.012626,-2621023.311737,-2627551.809257,-2477290.687238,-2477252.599866,-71996.935844,-2541529.600803,-2518612.804247
0.83203125,-351052.385694,-39555.0775,-1246789.604043,-35499.576986,-1216473.128375,-1494497.536957,-1714393.64128,-2174724.063244,-3572476.99171,-2626149.550217,-2632648.006993,-2482423.899463,-2482540.84379,-73826.739052,-2546567.326375,-2523733.141867
0.8359375,-352217.537429,-40770.65477,-1247073.918232,-36087.517272,-1216482.247887,-1494490.026771,-1714385.594652,-2174757.859082,-3572458.216245,-2626133.456961,-2632600.263667,-2482400.296021,-2483070.848354,-74547.180479,-2546503.489793,-2523732.068984
0.83984375,-353384.834931,-42363.350673,-1247308.343328,-36878.232584,-1216462.93598,-1494471.251305,-1714291.717326,-2174758.931966,-3572421.738198,-2626069.620379,-2632518.188061,-2482362.74509,-2483332.631985,-75406.023908,-2546419.26842,-2523698.273146
0.84375,-354723.793831,-43986.623762,-1247658.639867,-37726.883617,-1216455.962235,-1494478.22505,-1714469.816025,-2174766.978594,-3572401.353407,-2626007.929564,-2632452.742154,-2482348.261159,-2483497.319638,-76595.851969,-2546336.656372,-2523672.523936
0.84765625,-356061.679847,-45242.434173,-1248038.977151,-38386.170672,-1216442.551189,-1494472.860631,-1714778.806541,-2174768.587919,-3572376.677081,-2625951.066727,-2632394.806432,-2482321.975508,-2483651.814896,-77695.021355,-2546248.679906,-2523639.264541
0.8515625,-357233.268885,-46366.816326,-1248295.396363,-38933.877818,-1216438.796096,-1494473.397073,-1714825.476983,-2174780.926082,-3572352.537197,-2625917.807331,-2632350.281757,-2482303.736484,-2483699.02178,-78412.244131,-2546194.499277,-2523624.244168
0.85546875,-358325.464526,-47828.620413,-1248450.964505,-39656.465013,-1216428.067258,-1494469.105538,-1714683.319889,-2174786.826943,-3572331.079523,-2625863.626702,-2632289.663826,-2482283.351694,-2483699.02178,-79167.554279,-2546136.563556,-2523602.786494
0.859375,-359552.307076,-49383.228944,-1248684.853159,-40464.882906,-1216415.192654,-1494472.324189,-1714777.197215,-2174786.826943,-3572316.05915,-2625794.962143,-2632224.75436,-2482263.503344,-2483733.890502,-80245.26599,-2546058.779485,-2523573.818633
0.86328125,-360796.852207,-50582.176516,-1248971.313116,-41102.175844,-1216401.245165,-1494472.860631,-1715042.199497,-2174785.754059,-3572292.99215,-2625741.854398,-2632171.646615,-2482243.654995,-2483785.388921,-81311.17598,-2545981.531856,-2523546.460098
0.8671875,-361869.735941,-51533.824388,-1249160.677095,-41570.489594,-1216399.099398,-1494474.469957,-1715091.015707,-2174799.701548,-3572267.24294,-2625716.105189,-2632136.241452,-2482227.561739,-2483784.316037,-81977.97322,-2545933.78853,-2523537.340586
0.87109375,-362796.707487,-52764.958473,-1249212.711956,-42173.450252,-1216393.198537,-1494471.787747,-1714911.844124,-2174810.430385,-3572256.514103,-2625673.726281,-2632085.279475,-2482211.468483,-2483843.324643,-82581.47032,-2545884.97232,-2523525.002423
0.875,-363827.748755,-54139.858978,-1249321.073213,-42891.20947,-1216371.740862,-1494463.741119,-1714913.989891,-2174802.920199,-3572231.837777,-2625605.061722,-2632021.979335,-2482189.474367,-2483903.406132,-83482.156215,-2545814.161994,-2523493.888795
0.87890625,-364900.096047,-55209.52406,-1249508.291424,-43470.566686,-1216355.111164,-1494458.913143,-1715136.076824,-2174796.482896,-3572202.869916,-2625547.126001,-2631967.262264,-2482165.334483,-2483935.592644,-84461.162622,-2545734.232156,-2523461.702283
0.8828125,-365826.531151,-55955.714697,-1249630.063728,-43845.539551,-1216343.845885,-1494448.720747,-1715217.079546,-2174795.410013,-3572172.29273,-2625513.866605,-2631925.419799,-2482135.83018,-2483984.408854,-85060.368187,-2545676.832876,-2523436.489515
0.88671875,-366592.033695,-56935.793988,-1249609.142495,-44318.681278,-1216329.898397,-1494436.382584,-1715025.5698,-2174797.55578,-3572151.907939,-2625475.779232,-2631878.212914,-2482111.690296,-2483996.747017,-85515.270891,-2545632.308201,-2523416.641166
0.890625,-368375.702903,-59134.669201,-1249738.424985,-45488.124548,-1216347.064536,-1494479.297933,-1715138.222592,-2174838.325362,-3572161.027451,-2625413.551976,-2631823.495844,-2482120.273366,-2484153.924484,-87148.736375,-2545551.841921,-2523413.958956
0.89453125,-369211.479331,-59761.233301,-1249829.083661,-45809.989668,-1216327.216187,-1494460.522468,-1715263.749989,-2174829.742292,-3572125.085846,-2625377.610371,-2631781.653378,-2482087.550412,-2484202.740693,-87723.265615,-2545491.760432,-2523384.991096
0.8984375,-369877.203688,-60546.584194,-1249780.267451,-46186.571859,-1216330.434839,-1494464.277561,-1715096.380126,-2174845.835548,-3572111.138357,-2625363.12644,-2631758.049936,-2482081.11311,-2484218.833949,-88075.17148,-2545468.15699,-2523383.38177
0.90234375,-370576.187441,-61615.712835,-1249726.086822,-46736.424772,-1216330.97128,-1494471.251305,-1714973.534939,-2174856.564385,-3572113.284125,-2625325.039068,-2631719.962564,-2482080.576668,-2484375.474975,-88656.138021,-2545430.606059,-2523375.335142
0.90625,-371376.558706,-62519.080939,-1249778.121683,-47235.85215,-1216293.42035,-1494445.502096,-1715129.639522,-2174828.669408,-3572063.395031,-2625252.082974,-2631652.370888,-2482037.661319,-2484504.221023,-89460.800822,-2545342.093151,-2523325.98249
0.91015625,-372068.568715,-63002.951503,-1249821.573475,-47496.562898,-1216296.102559,-1494450.330073,-1715277.697477,-2174840.471129,-3572052.129752,-2625240.817695,-2631635.74119,-2482023.71383,-2484632.967071,-89990.268945,-2545306.687988,-2523316.862979
0.9140625,-372536.346023,-63489.504276,-1249715.894427,-47721.868482,-1216312.195815,-1494464.814003,-1715131.785289,-2174868.366107,-3572056.421287,-2625249.400765,-2631630.376772,-2482027.468923,-2484790.144538,-90184.997342,-2545302.932895,-2523326.518932
0.91796875,-372539.564674,-63821.561792,-1249009.93693,-47871.535763,-1215250.57736,-1493411.778618,-1714283.670698,-2173823.37735,-3570993.729948,-2624160.423775,-2630540.326898,-2480955.658073,-2483964.024063,-90216.110971,-2544220.929649,-2522264.364036
0.921875,-368167.563458,-59332.61625,-1242370.932385,-45273.547801,-1203449.929172,-1481725.392547,-1706389.928626,-2162106.950534,-3559292.323505,-2612284.137283,-2618740.751593,-2469158.764977,-2471689.161264,-87152.491468,-2532486.26381,-2510540.963476
0.92578125,-372164.055367,-63173.003575,-1246740.251391,-47474.568781,-1212433.721117,-1490732.251493,-1711486.126362,-2171030.660991,-3568272.360357,-2621263.637693,-2627789.989446,-2478222.486761,-2479140.875237,-90062.688597,-2541495.804965,-2519526.901189
0.9296875,-373860.820992,-64872.987851,-1248595.267367,-48464.304026,-1216337.408583,-1494568.347283,-1713813.747622,-2174919.864526,-3572117.575659,-2625200.048113,-2631669.000586,-2482093.451273,-2483935.592644,-91209.601308,-2545339.410942,-2523405.912328
0.93359375,-373735.830037,-65062.35183,-1248248.189479,-48552.816934,-1216315.414466,-1494514.166655,-1713602.925969,-2174911.281456,-3572062.858589,-2625187.70995,-2631609.991981,-2482037.661319,-2484808.920003,-91122.697726,-2545282.011662,-2523370.507165
0.9375,-373639.270501,-65142.81811,-1248006.790639,-48630.064563,-1216323.997536,-1494505.047143,-1713684.465132,-2174926.83827,-3572048.9111,-2625199.511671,-2631593.898725,-2482023.177388,-2485458.551104,-91255.198867,-2545257.871778,-2523357.63256
0.94140625,-373398.408103,-64688.451849,-1247791.67745,-48435.872607,-1216333.65349,-1494494.318306,-1713901.187647,-2174937.567107,-3572036.036496,-2625230.625299,-2631596.044492,-2482007.084132,-2486077.605018,-91206.919099,-2545244.460731,-2523345.294398
0.9453125,-372826.561073,-63890.762793,-1247439.235144,-48022.275927,-1216318.096676,-1494447.647863,-1713875.974879,-2174924.692503,-3571999.022007,-2625254.765183,-2631588.534306,-2481963.632341,-2486637.650327,-90645.800906,-2545235.877661,-2523311.49856
0.94921875,-371975.22783,-63219.674017,-1246941.417091,-47668.760737,-1216326.679746,-1494428.335956,-1713652.27862,-2174934.884898,-3571986.683844,-2625293.92544,-2631598.19026,-2481952.367062,-2487001.894355,-89954.327339,-2545264.845522,-2523306.134141
0.953125,-371042.891865,-62426.276496,-1246484.905062,-47299.152291,-1216356.184048,-1494433.700375,-1713644.231992,-2174961.706991,-3572008.141519,-2625345.960301,-2631630.376772,-2481963.095899,-2487118.30224,-89430.223635,-2545306.687988,-2523318.472304
0.95703125,-369899.197805,-61028.308991,-1246045.559173,-46633.427934,-1216349.210304,-1494398.831653,-1713816.429832,-2174947.759503,-3571982.392309,-2625382.438348,-2631646.470028,-2481933.055154,-2487080.214868,-88741.432278,-2545316.880383,-2523293.795978
0.9609375,-368336.006205,-59079.95213,-1245461.910422,-45643.692689,-1216358.866258,-1494365.572258,-1713779.951785,-2174949.368828,-3571962.007518,-2625461.295302,-2631692.604028,-2481911.59748,-2487036.763076,-87459.336216,-2545373.743221,-2523290.040885
0.96484375,-366350.634855,-57101.018083,-1244685.679041,-44629.281119,-1216378.178165,-1494340.35949,-1713479.007897,-2174961.17055,-3571964.153286,-2625551.417536,-2631746.784657,-2481906.233061,-2486999.212146,-85882.197128,-2545459.037478,-2523300.233281
0.96875,-364153.368968,-54957.932825,-1243902.473915,-43571.417757,-1216387.834118,-1494311.928071,-1713329.340616,-2174959.561224,-3571962.007518,-2625634.029583,-2631797.746634,-2481901.941526,-2486957.906122,-84372.649714,-2545536.821549,-2523302.91549
0.97265625,-361667.497357,-52143.758791,-1243133.75272,-42192.762159,-1216432.358793,-1494309.245862,-1713402.29671,-2174985.310434,-3571985.074518,-2625764.384957,-2631893.769728,-2481919.644108,-2486941.276424,-82703.779066,-2545649.474341,-2523330.274025
0.9765625,-358677.906832,-48589.294981,-1242230.921058,-40400.509882,-1216466.691073,-1494280.814443,-1713349.188965,-2174998.72148,-3571993.121146,-2625915.125121,-2632003.203869,-2481921.253433,-2486902.65261,-80392.251061,-2545785.194133,-2523354.413909
0.98046875,-355201.763535,-44893.210518,-1241133.89744,-38515.989604,-1216476.347026,-1494221.269396,-1713020.350101,-2174987.992643,-3571984.538076,-2626050.308472,-2632093.326103,-2481899.795759,-2486837.743144,-77673.56368,-2545921.450367,-2523357.63256
0.984375,-351702.553237,-41332.845847,-1240109.829916,-36732.856838,-1216495.122492,-1494184.254907,-1712839.569192,-2174979.409573,-3571995.803356,-2626175.835869,-2632189.349197,-2481897.649991,-2486795.900678,-75140.485184,-2546061.461694,-2523361.924095
0.98828125,-348644.298153,-37926.976434,-1239404.408861,-35057.012446,-1216538.037841,-1494188.546442,-1713050.390846,-2174993.357062,-3572032.817844,-2626311.555661,-2632313.267268,-2481929.300061,-2486805.556632,-73037.096624,-2546209.51965,-2523388.209747
0.9921875,-346209.924961,-34926.12063,-1239011.733414,-33547.465032,-1216577.198097,-1494199.275279,-1713358.308477,-2175005.695224,-3572067.686566,-2626431.182197,-2632433.966688,-2481961.486573,-2486829.696516,-71146.675485,-2546348.458093,-2523412.886073
0.99609375,-344438.057475,-32965.425606,-1238825.051644,-32530.907694,-1216609.384609,-1494223.951605,-1713487.054525,-2175017.496946,-3572114.357008,-2626512.721361,-2632532.671992,-2482005.474806,-2486876.9034,-69625.862792,-2546479.886351,-2523442.390375
1.0,0.0,0.0,0.0,0.0,0.0,0.0,0.0,0.0,0.0,0.0,0.0,0.0,0.0,0.0,0.0,0.0
1.00390625,-476205.882574,-158256.788046,-1479809.75864,-145264.166029,-1397022.294643,-1741392.760443,-2083894.79922,-2528701.129997,-3525006.714464,-2488658.963282,-2495183.169268,-2444406.264354,-2438829.951147,-186368.48764,-2529590.550612,-2519664.230307
1.0078125,-476233.777551,-158284.146581,-1479873.595223,-145336.049239,-1397006.201387,-1741382.568047,-2084010.134221,-2528683.963857,-3524991.15765,-2488632.141189,-2495160.102267,-2444391.243981,-2438906.662334,-186382.435129,-2529569.629379,-2519645.454841
1.01171875,-476276.6929,-158340.472977,-1479964.253898,-145166.533609,-1397017.466666,-1741386.32314,-2084151.754874,-2528690.40116,-3524990.084766,-2488648.770887,-2495175.12264,-2444393.389749,-2438989.810823,-186437.688641,-2529584.649752,-2519648.137051
1.015625,-476284.739528,-158362.467094,-1480001.268387,-145034.56891,-1396993.863224,-1741355.745954,-2084107.766641,-2528663.042624,-3524958.434696,-2488631.068305,-2495153.128523,-2444360.130353,-2438920.609822,-186470.411595,-2529572.311589,-2519621.314957
1.01953125,-476311.561622,-158384.997652,-1479985.711573,-145152.049679,-1396971.869108,-1741339.652698,-2083996.186733,-2528640.512066,-3524941.804998,-2488597.272467,-2495120.405569,-2444341.354888,-2438822.977403,-186492.942154,-2529558.900542,-2519602.00305
1.0234375,-476383.981274,-158455.271537,-1480020.043852,-145251.827866,-1397000.300527,-1741373.984977,-2084058.413989,-2528668.407043,-3524968.627091,-2488609.61063,-2495138.108151,-2444371.932074,-2438870.184287,-186551.414317,-2529584.649752,-2519626.142934
1.02734375,-474186.178945,-156244.058161,-1478697.71465,-143426.852635,-1394762.8015,-1739128.439323,-2082560.131855,-2526446.46483,-3522748.830646,-2486378.012464,-2492905.437101,-2442129.068628,-2437041.990404,-184335.909407,-2527362.171097,-2517399.909186
1.03125,-460803.027249,-142606.096578,-1469733.234612,-132901.863206,-1381244.466453,-1725273.218784,-2071934.827797,-2513084.770809,-3509501.398742,-2472886.499511,-2479521.748963,-2428711.584653,-2423881.998525,-170735.498754,-2514059.485681,-2504086.494933
1.03515625,-463996.465683,-145701.366151,-1471360.262795,-135560.469098,-1384324.179211,-1728121.188655,-2073401.996303,-2516118.349566,-3512637.437896,-2475925.442687,-2482662.079652,-2431873.909458,-2424467.256602,-173840.42428,-2517237.367301,-2507247.210413
1.0390625,-463813.539006,-145391.839193,-1470022.91322,-135203.735257,-1384037.719254,-1726434.615425,-2071845.778447,-2515831.353167,-3512495.817244,-2475640.592055,-2482483.44451,-2431710.831131,-2422010.889293,-173533.04309,-2517083.944927,-2507097.543132
1.04296875,-476713.35658,-158508.915723,-1477452.633077,-144928.889862,-1396909.105409,-1740021.078589,-2080573.15118,-2528546.634739,-3525061.431534,-2488458.334024,-2495247.00585,-2444489.949285,-2432452.193791,-186613.641574,-2529770.79508,-2519777.419541
1.046875,-476826.009372,-158726.17468,-1477484.819589,-144845.204931,-1397072.183737,-1741283.326302,-2080868.730649,-2528704.348648,-3525134.387628,-2488631.068305,-2495338.737409,-2444558.613844,-2433970.860716,-186833.046297,-2529854.480011,-2519862.713797
1.05078125,-476836.201767,-158792.693471,-1477493.939101,-144899.385559,-1397088.276993,-1741525.261584,-2081003.913999,-2528723.124113,-3525113.466396,-2488648.770887,-2495307.623781,-2444528.573099,-2435025.505427,-186904.393065,-2529830.340127,-2519829.990844
1.0546875,-476845.321279,-158830.780844,-1477602.8368,-145054.953701,-1397077.548155,-1741511.314095,-2081282.327328,-2528715.077485,-3525082.889209,-2488628.386096,-2495259.880455,-2444494.24082,-2435910.634507,-186931.215159,-2529783.133243,-2519783.856843
1.05859375,-476879.653559,-158898.372519,-1477801.320291,-145004.528165,-1397092.568528,-1741516.142072,-2081696.996891,-2528731.707183,-3525076.988349,-2488649.307328,-2495260.416896,-2444488.339959,-2436670.236191,-186988.077997,-2529776.159498,-2519773.128006
1.0625,-476897.892582,-158951.480264,-1478015.897037,-144794.242954,-1397095.250737,-1741500.585258,-2082003.841639,-2528733.316509,-3525054.45779,-2488669.692119,-2495257.734687,-2444467.418726,-2437195.412778,-187050.841695,-2529776.69594,-2519751.670331
1.06640625,-476901.647675,-158972.401496,-1478156.981248,-144801.75314,-1397069.501527,-1741464.107211,-2082103.083384,-2528705.957974,-3525020.661953,-2488644.479352,-2495216.428663,-2444429.867796,-2437430.374316,-187082.491765,-2529750.94673,-2519709.827865
1.0703125,-476940.27149,-159015.316846,-1478307.184971,-144963.758584,-1397068.428644,-1741463.034327,-2082264.552386,-2528704.88509,-3525019.052627,-2488629.995421,-2495196.580314,-2444425.039819,-2437672.309598,-187118.43337,-2529743.436544,-2519699.099028
1.07421875,-476965.484257,-159052.867776,-1478509.959997,-144962.149258,-1397059.845574,-1741452.30549,-2082585.881065,-2528693.619811,-3525000.277162,-2488617.120816,-2495177.268407,-2444408.410121,-2437986.664532,-187142.036813,-2529724.124637,-2519680.323563
1.078125,-476994.98856,-159107.048405,-1478714.88079,-144755.082697,-1397065.209993,-1741449.086839,-2082835.326533,-2528696.30202,-3524990.084766,-2488635.35984,-2495185.315035,-2444399.290609,-2438189.439558,-187202.654744,-2529732.707707,-2519674.959144
1.08203125,-477045.414096,-159166.593452,-1478839.871745,-144705.193604,-1397080.766807,-1741458.742792,-2082859.466417,-2528710.249509,-3524997.594952,-2488650.380212,-2495193.361663,-2444404.655028,-2438238.792209,-187274.001512,-2529756.311149,-2519681.932888
1.0859375,-477105.495585,-159222.383406,-1478948.233002,-144855.397326,-1397096.860063,-1741473.763165,-2082910.428394,-2528724.733439,-3525013.688208,-2488646.625119,-2495192.825221,-2444420.211842,-2438305.847443,-187323.890605,-2529769.722196,-2519691.0524
1.08984375,-477129.635469,-159252.960593,-1479107.019795,-144894.021141,-1397082.912574,-1741462.497886,-2083140.025513,-2528708.640183,-3524995.449185,-2488625.703886,-2495171.367546,-2444405.19147,-2438483.409701,-187344.275396,-2529750.410289,-2519673.88626
1.09375,-477161.821981,-159302.849686,-1479273.853215,-144695.001208,-1397088.276993,-1741456.060583,-2083349.774283,-2528708.640183,-3524987.938999,-2488640.187817,-2495179.414174,-2444396.071958,-2438631.467656,-187396.310257,-2529757.384033,-2519669.058283
1.09765625,-477217.075493,-159367.222711,-1479368.803426,-144594.686579,-1397107.5889,-1741471.080955,-2083355.138702,-2528725.806323,-3525000.813603,-2488663.254817,-2495196.043872,-2444407.873679,-2438606.79133,-187473.557886,-2529792.252754,-2519684.078656
1.1015625,-477272.865447,-159418.184688,-1479429.421357,-144729.86993,-1397116.17197,-1741482.882676,-2083330.462376,-2528732.780067,-3525008.32379,-2488655.744631,-2495187.460802,-2444417.529633,-2438547.782725,-187522.374096,-2529803.518033,-2519689.443074
1.10546875,-477310.416378,-159456.808502,-1479544.219916,-144803.898907,-1397109.734668,-1741482.346235,-2083487.639843,-2528726.342765,-3525001.886487,-2488638.042049,-2495175.659081,-2444411.09233,-2438649.170238,-187548.659748,-2529791.179871,-2519680.323563
1.109375,-477340.993564,-159502.406061,-1479678.866825,-144637.601928,-1397110.271109,-1741478.0547,-2083683.441124,-2528723.124113,-3524992.230534,-2488647.698003,-2495179.950616,-2444404.118586,-2438794.009542,-187594.793748,-2529796.007847,-2519676.032028
1.11328125,-477380.153821,-159556.050248,-1479750.750035,-144492.226182,-1397119.390621,-1741479.127583,-2083694.706404,-2528729.024974,-3524994.912743,-2488661.109049,-2495187.997244,-2444402.50926,-2438783.280704,-187659.166772,-2529818.001964,-2519676.032028
1.1171875,-477421.459844,-159590.918969,-1479767.379733,-144600.58744,-1397111.880435,-1741473.763165,-2083617.458775,-2528719.36902,-3524989.548324,-2488640.724259,-2495169.758221,-2444396.071958,-2438708.178843,-187695.108377,-2529818.001964,-2519668.521842
1.12109375,-477461.156542,-159627.397016,-1479837.117176,-144706.802929,-1397108.125342,-1741474.299607,-2083707.044567,-2528712.931718,-3524983.647464,-2488620.875909,-2495153.128523,-2444392.316865,-2438758.067937,-187720.321145,-2529806.736685,-2519660.475214
1.125,-477485.832868,-159662.265737,-1479947.087758,-144578.593323,-1397098.469388,-1741460.88856,-2083882.997499,-2528701.129997,-3524960.580463,-2488615.511491,-2495142.399686,-2444374.077842,-2438859.991891,-187750.898332,-2529796.007847,-2519643.845516
1.12890625,-468905.445207,-150969.225284,-1474580.523322,-138032.393221,-1388438.151889,-1732710.985268,-2077525.624934,-2520125.570312,-3516425.253919,-2479973.969456,-2486529.28907,-2435733.608691,-2431215.158846,-179079.851994,-2521229.567674,-2511069.895157
1.1328125,-465584.333609,-147452.312404,-1471535.142843,-135327.116886,-1384963.617917,-1728858.796222,-2073651.441771,-2516701.998317,-3513126.136437,-2476472.613391,-2483174.918076,-2432390.502976,-2425437.143497,-175584.933231,-2517940.642588,-2507753.611535
1.13671875,-477678.415499,-159683.723412,-1478770.134302,-144505.100787,-1397041.070109,-1741355.745954,-2081985.602616,-2528623.345926,-3525015.297534,-2488495.884954,-2495184.778593,-2444436.305098,-2435053.936846,-187786.303495,-2529907.587756,-2519716.265168
1.140625,-477787.849639,-159857.530577,-1478832.898001,-144521.194043,-1397158.014436,-1741587.488841,-2082287.082945,-2528740.826695,-3525082.352767,-2488624.094561,-2495260.416896,-2444502.82389,-2436046.354299,-187948.84538,-2529973.570105,-2519796.195006
1.14453125,-477791.604732,-159908.492554,-1478890.297281,-144327.538529,-1397156.40511,-1741562.812515,-2082446.942621,-2528740.826695,-3525048.55693,-2488641.797142,-2495240.032105,-2444466.882285,-2436724.953261,-188009.999753,-2529953.185314,-2519764.544936
1.1484375,-477827.009896,-159965.355392,-1478917.119374,-144369.380995,-1397166.061064,-1741560.666747,-2082461.426552,-2528751.555532,-3525046.411162,-2488649.307328,-2495229.303268,-2444461.517866,-2437130.503312,-188076.518545,-2529957.476849,-2519753.816098
1.15234375,-477854.904873,-160005.05209,-1478994.903445,-144523.876253,-1397160.696645,-1741552.083677,-2082586.417507,-2528747.263997,-3525037.29165,-2488630.531863,-2495202.481175,-2444447.033935,-2437530.688945,-188105.486406,-2529938.701384,-2519732.894866
1.15625,-477885.482059,-160051.186091,-1479137.596981,-144489.543973,-1397161.769529,-1741545.646375,-2082859.466417,-2528744.581788,-3525022.80772,-2488629.995421,-2495192.825221,-2444435.768656,-2437908.344019,-188140.355127,-2529926.363221,-2519718.410935
1.16015625,-477919.814339,-160109.658254,-1479287.264262,-144281.940971,-1397167.670389,-1741542.964166,-2083044.538861,-2528749.946207,-3525013.688208,-2488649.84377,-2495201.408291,-2444426.649144,-2438143.841999,-188204.728151,-2529937.092058,-2519710.364307
1.1640625,-477949.318641,-160147.745627,-1479359.147472,-144277.112994,-1397163.378854,-1741530.089561,-2083040.783768,-2528744.581788,-3525003.495813,-2488644.479352,-2495185.315035,-2444412.701656,-2438205.532814,-188254.080803,-2529939.774268,-2519696.953261
1.16796875,-478033.540014,-160230.894116,-1479437.467985,-144435.899786,-1397203.075552,-1741574.614236,-2083096.03728,-2528784.814928,-3525044.801837,-2488665.937026,-2495209.454919,-2444455.080563,-2438292.436396,-188329.182664,-2529976.788756,-2519735.040633
1.171875,-478052.851922,-160256.106884,-1479571.04201,-144446.092182,-1397184.300087,-1741556.375212,-2083324.025074,-2528762.28437,-3525017.443301,-2488640.187817,-2495183.705709,-2444430.940679,-2438497.893631,-188342.593711,-2529951.575989,-2519709.827865
1.17578125,-478072.700271,-160296.340024,-1479711.589779,-144244.39004,-1397177.326343,-1741539.745514,-2083503.733099,-2528752.628416,-3524997.594952,-2488645.015793,-2495179.950616,-2444411.09233,-2438640.050726,-188388.727711,-2529951.575989,-2519693.198167
1.1796875,-478118.834271,-160351.057094,-1479769.5255,-144192.355179,-1397188.05518,-1741546.182817,-2083477.983889,-2528761.747928,-3525003.495813,-2488656.817515,-2495187.460802,-2444415.920307,-2438621.275261,-188455.782945,-2529974.642989,-2519699.099028
1.18359375,-478163.895388,-160386.9987,-1479810.295082,-144342.558902,-1397188.05518,-1741549.93791,-2083463.499959,-2528759.065719,-3525005.64158,-2488638.042049,-2495170.294663,-2444414.847423,-2438614.301516,-188492.260992,-2529973.570105,-2519694.807493
1.1875,-478171.405574,-160398.263979,-1479905.781735,-144392.984437,-1397155.868668,-1741517.751398,-2083626.578286,-2528721.514788,-3524969.699975,-2488592.44449,-2495127.379313,-2444381.588028,-2438730.17296,-188489.04234,-2529933.336965,-2519659.40233
1.19140625,-478214.857365,-160458.88191,-1480016.288759,-144206.839109,-1397168.206831,-1741526.334468,-2083790.729498,-2528732.780067,-3524971.845743,-2488616.047933,-2495145.618337,-2444384.270237,-2438827.805379,-188551.806039,-2529951.575989,-2519664.230307
1.1953125,-478278.693948,-160532.910887,-1480065.104969,-144101.160061,-1397197.174692,-1741550.474352,-2083761.225195,-2528761.747928,-3524995.449185,-2488650.380212,-2495174.586198,-2444406.800795,-2438763.432355,-188638.709621,-2529996.100664,-2519691.588842
1.19921875,-478344.676297,-160595.674586,-1480075.833806,-144232.588319,-1397217.023041,-1741574.077794,-2083700.607264,-2528779.986951,-3525019.052627,-2488656.281073,-2495180.487058,-2444429.331354,-2438692.622029,-188699.863994,-2530019.167664,-2519709.827865
1.203125,-478359.69667,-160608.549191,-1480140.743272,-144318.955459,-1397189.664506,-1741549.401468,-2083826.671103,-2528748.873323,-3524989.011882,-2488612.829281,-2495141.863244,-2444400.363493,-2438808.493472,-188697.181785,-2529986.44471,-2519677.104911
1.20703125,-478374.1806,-160638.053493,-1480238.375692,-144162.314434,-1397174.644133,-1741528.480235,-2083997.259617,-2528730.097858,-3524964.335557,-2488604.246212,-2495129.525081,-2444375.687167,-2438939.385288,-188727.222529,-2529975.179431,-2519658.329446
1.2109375,-478411.731531,-160685.260378,-1480285.046135,-144013.183595,-1397176.253459,-1741525.798026,-2083980.629919,-2528730.097858,-3524960.580463,-2488614.975049,-2495136.498825,-2444369.249865,-2438928.120008,-188786.767577,-2529990.199803,-2519654.574353
1.21484375,-478454.64688,-160725.493518,-1480273.244414,-144117.789759,-1397174.644133,-1741525.798026,-2083878.169522,-2528726.879207,-3524958.971138,-2488600.491118,-2495123.087778,-2444370.322748,-2438819.758751,-188829.146484,-2529994.491338,-2519651.892144
1.21875,-478530.821625,-160797.91317,-1480312.40467,-144228.833226,-1397206.294204,-1741561.739631,-2083944.151872,-2528759.60216,-3524992.766975,-2488616.047933,-2495142.399686,-2444403.045702,-2438851.408822,-188890.300857,-2530021.313431,-2519681.932888
1.22265625,-478553.888625,-160830.636123,-1480396.626043,-144107.597364,-1397194.492482,-1741549.401468,-2084103.475106,-2528745.11823,-3524971.845743,-2488606.391979,-2495131.670848,-2444382.660911,-2438966.743823,-188917.12295,-2530011.121036,-2519663.157423
1.2265625,-477221.367028,-159495.968759,-1479609.665824,-142945.66428,-1395824.956396,-1740175.037405,-2083127.68735,-2527380.946562,-3523607.674075,-2487245.975404,-2493768.572064,-2443004.541755,-2437807.492948,-187596.403074,-2528664.115508,-2518296.303546
1.23046875,-463229.890255,-145240.026145,-1470258.4112,-132603.065086,-1381692.395412,-1725742.605417,-2072139.212148,-2513424.338511,-3509764.255257,-2473131.117002,-2479750.80964,-2428973.904726,-2424348.166507,-173367.282554,-2514739.693968,-2504375.637099
1.234375,-474390.026854,-156408.745814,-1476479.527531,-140746.789068,-1392750.608057,-1736740.736573,-2079043.218975,-2524343.612712,-3520737.710087,-2484120.665088,-2490834.771494,-2440101.318371,-2431225.887683,-184520.981851,-2525809.708334,-2515414.001395
1.23828125,-478863.415583,-161001.761079,-1479212.162401,-144017.47513,-1397239.017157,-1741643.278795,-2082372.913643,-2528760.138602,-3525092.545163,-2488595.1267,-2495253.443152,-2444516.771378,-2435594.670247,-189093.612324,-2530195.657038,-2519818.725564
1.2421875,-478845.176559,-161045.749312,-1479211.089517,-143812.554337,-1397225.606111,-1741634.159283,-2082509.70632,-2528750.482649,-3525039.97386,-2488603.173328,-2495217.501547,-2444459.372098,-2436384.849117,-189147.256511,-2530154.887456,-2519770.982238
1.24609375,-478878.972397,-161103.685034,-1479202.506447,-143837.767105,-1397233.652739,-1741627.185539,-2082518.289389,-2528763.357253,-3525034.609441,-2488614.975049,-2495206.236268,-2444450.789029,-2436883.740054,-189216.457512,-2530154.351014,-2519758.107633
1.25,-478913.304676,-161149.819034,-1479254.541308,-143986.897944,-1397236.334948,-1741625.039771,-2082644.88967,-2528766.039463,-3525027.099255,-2488604.246212,-2495182.632826,-2444441.669517,-2437328.986803,-189255.617768,-2530142.549293,-2519741.477935
1.25390625,-478948.709839,-161205.072547,-1479381.678031,-143950.956339,-1397245.45446,-1741626.112655,-2082923.302999,-2528774.622533,-3525020.661953,-2488614.975049,-2495181.559942,-2444439.523749,-2437774.769995,-189300.678885,-2530138.257758,-2519736.113517
1.2578125,-478960.511561,-161245.842128,-1479520.616474,-143732.624499,-1397237.407832,-1741602.509213,-2083120.177164,-2528760.675044,-3524993.839859,-2488619.266584,-2495174.049756,-2444413.77454,-2438074.104556,-189349.495095,-2530132.356898,-2519710.364307
1.26171875,-478984.115003,-161280.174408,-1479582.843731,-143706.338847,-1397226.142553,-1741583.733747,-2083119.640722,-2528745.11823,-3524978.283045,-2488607.464863,-2495154.737849,-2444392.853307,-2438165.836116,-189390.801119,-2530128.601805,-2519687.833749
1.265625,-479046.878701,-161338.646571,-1479649.898964,-143850.64171,-1397245.45446,-1741607.873631,-2083169.529816,-2528763.893695,-3524997.594952,-2488612.29284,-2495157.9565,-2444411.09233,-2438253.812582,-189447.127515,-2530144.695061,-2519700.708354
1.26953125,-479095.158469,-161396.045851,-1479774.889919,-143853.323919,-1397258.865507,-1741620.211794,-2083391.616749,-2528774.622533,-3525005.64158,-2488619.266584,-2495160.638709,-2444419.138958,-2438438.348584,-189493.261515,-2530150.595921,-2519707.682098
1.2734375,-479130.02719,-161452.372247,-1479913.291921,-143640.89294,-1397267.448576,-1741618.602469,-2083576.152751,-2528779.986951,-3524996.522069,-2488639.114933,-2495171.903988,-2444415.383865,-2438610.009981,-189554.95233,-2530165.616294,-2519708.21854
1.27734375,-479169.723889,-161500.652015,-1479979.27427,-143566.32752,-1397271.203669,-1741618.602469,-2083552.549309,-2528782.132719,-3524997.05851,-2488645.552235,-2495174.586198,-2444411.09233,-2438602.499795,-189616.643145,-2530183.855317,-2519705.53633
1.28125,-479223.904517,-161550.541109,-1480021.653178,-143703.656638,-1397281.932507,-1741633.086399,-2083531.628076,-2528791.252231,-3525008.32379,-2488639.114933,-2495169.758221,-2444421.821168,-2438576.214144,-189663.850029,-2530193.511271,-2519712.510075
1.28515625,-479260.919006,-161588.09204,-1480113.921179,-143747.108429,-1397279.250297,-1741632.013515,-2083695.779287,-2528785.887812,-3525000.813603,-2488627.849654,-2495159.565825,-2444416.993191,-2438701.741541,-189691.745006,-2530186.001085,-2519705.53633
1.2890625,-479303.834355,-161648.173529,-1480230.329064,-143553.989357,-1397292.661344,-1741636.841492,-2083869.05001,-2528793.397998,-3525000.813603,-2488650.380212,-2495176.731965,-2444419.138958,-2438821.368077,-189753.435821,-2530204.240108,-2519709.291423
1.29296875,-479328.510681,-161683.578692,-1480287.728344,-143427.389077,-1397281.932507,-1741621.82112,-2083852.420312,-2528781.059835,-3524985.256789,-2488645.552235,-2495165.466686,-2444403.582144,-2438800.983286,-189802.788473,-2530210.67741,-2519693.734609
1.296875,-479390.201496,-161742.050855,-1480297.384298,-143540.578311,-1397300.17153,-1741641.133027,-2083780.537102,-2528796.080207,-3525004.568697,-2488648.770887,-2495169.758221,-2444419.6754,-2438763.968797,-189863.406403,-2530232.135085,-2519710.364307
1.30078125,-479421.315124,-161772.0916,-1480360.684438,-143618.362381,-1397287.296925,-1741634.159283,-2083889.434801,-2528783.205603,-3524991.694092,-2488621.412351,-2495148.836988,-2444405.727912,-2438843.898635,-189879.499659,-2530213.35962,-2519695.343935
1.3046875,-479465.839799,-161830.027322,-1480458.853299,-143455.820496,-1397301.244414,-1741644.351678,-2084054.658896,-2528791.788672,-3524994.912743,-2488642.333584,-2495166.003128,-2444411.09233,-2438952.259892,-189937.971823,-2530232.135085,-2519702.854121
1.30859375,-479484.615264,-161858.458741,-1480510.888161,-143291.132842,-1397283.541832,-1741620.211794,-2084055.195338,-2528774.622533,-3524972.382185,-2488637.505607,-2495154.201407,-2444389.098214,-2438951.187009,-189980.887172,-2530231.062201,-2519681.396446
1.3125,-479529.676381,-161901.910532,-1480504.450858,-143379.109309,-1397285.151158,-1741622.894004,-2083947.370523,-2528775.695416,-3524973.99151,-2488625.167444,-2495144.009011,-2444390.171098,-2438849.263054,-190027.021173,-2530241.254597,-2519681.396446
1.31640625,-479576.346824,-161946.971649,-1480545.756882,-143489.616333,-1397288.369809,-1741630.40419,-2084003.696919,-2528775.158975,-3524976.137278,-2488610.683514,-2495135.962383,-2444393.389749,-2438883.058892,-190059.744127,-2530240.181713,-2519683.005772
1.3203125,-479604.241801,-161986.131905,-1480628.368929,-143366.234704,-1397281.932507,-1741621.284678,-2084169.457456,-2528767.112347,-3524964.871998,-2488610.147072,-2495131.670848,-2444381.588028,-2438984.982846,-190093.539964,-2530235.890178,-2519671.204051
1.32421875,-479668.614825,-162065.525301,-1480685.768209,-143168.824097,-1397318.410554,-1741648.643213,-2084190.378689,-2528796.616649,-3524987.402557,-2488654.135305,-2495171.367546,-2444403.045702,-2438989.810823,-190184.735082,-2530284.706388,-2519699.63547
1.328125,-476476.785717,-158825.416425,-1478641.388254,-140941.517465,-1394066.499956,-1738386.540221,-2081709.335054,-2525572.601029,-3521779.480193,-2485396.323847,-2491918.384065,-2441155.42664,-2436073.176393,-186956.427927,-2527064.445861,-2516470.791873
1.33203125,-464279.170546,-146331.685344,-1470301.862991,-132163.719197,-1381700.978482,-1725619.223788,-2071917.661657,-2513352.991742,-3509682.179652,-2473022.219303,-2479672.489127,-2428913.823237,-2423660.448034,-174499.711335,-2514903.308738,-2504315.019168
1.3359375,-477905.330408,-160072.643766,-1478265.342506,-141716.675963,-1395283.686552,-1739377.348349,-2080985.138534,-2526769.402834,-3523110.928906,-2486553.428954,-2493254.124314,-2442520.134749,-2433394.185709,-188204.191709,-2528442.028575,-2517825.844029
1.33984375,-479992.089271,-162264.008792,-1479525.444451,-143052.416212,-1397395.121741,-1741792.409634,-2082566.032716,-2528847.042185,-3525127.413884,-2488677.738747,-2495314.061083,-2444559.686727,-2435889.176832,-190392.874526,-2530486.944972,-2519873.442635
1.34375,-479998.526573,-162306.387699,-1479475.555357,-143069.582351,-1397387.611555,-1741775.243494,-2082546.720808,-2528845.969301,-3525095.763814,-2488675.59298,-2495277.046594,-2444523.208681,-2436525.396887,-190445.982271,-2530458.513553,-2519840.719681
1.34765625,-480003.890992,-162332.673351,-1479506.132544,-143223.004725,-1397365.080996,-1741744.666308,-2082660.446484,-2528828.266719,-3525063.04086,-2488642.870026,-2495227.157501,-2444485.65775,-2437062.911637,-190464.757736,-2530417.207529,-2519797.26789
1.3515625,-480017.302038,-162361.10477,-1479623.076871,-143198.328399,-1397356.497926,-1741725.3544,-2082936.714046,-2528817.00144,-3525036.755209,-2488633.750514,-2495204.626942,-2444461.517866,-2437573.067853,-190490.506946,-2530391.45832,-2519767.763587
1.35546875,-480022.666457,-162314.434327,-1479758.260221,-142985.360978,-1397355.961484,-1741711.943354,-2083142.707723,-2528814.319231,-3525019.589069,-2488650.916654,-2495206.77271,-2444444.888168,-2437952.332253,-190550.051993,-2530394.140529,-2519753.816098
1.359375,-480068.264016,-162349.303049,-1479826.388338,-142954.24735,-1397374.200508,-1741722.672191,-2083151.290792,-2528830.412487,-3525027.635697,-2488666.473468,-2495210.527803,-2444448.106819,-2438069.813021,-190623.544529,-2530418.280413,-2519756.498308
1.36328125,-480146.048086,-162506.480516,-1479897.735107,-143103.914631,-1397397.267508,-1741746.812075,-2083194.206142,-2528851.870162,-3525050.702697,-2488676.665864,-2495218.037989,-2444470.100936,-2438202.850604,-190684.698902,-2530438.665204,-2519773.128006
1.3671875,-480151.412505,-162512.917818,-1480023.798945,-143123.226538,-1397366.690322,-1741717.844214,-2083416.293075,-2528819.68365,-3525015.297534,-2488639.114933,-2495177.268407,-2444435.768656,-2438422.79177,-190686.844669,-2530401.114273,-2519736.113517
1.37109375,-480117.616667,-162281.174932,-1480163.273831,-142925.279489,-1397339.331787,-1741684.048377,-2083607.802821,-2528793.93444,-3524980.428813,-2488626.77677,-2495158.492942,-2444402.50926,-2438593.916725,-190716.885414,-2530386.093901,-2519704.999889
1.375,-480159.459133,-162216.801908,-1480231.401948,-142848.568302,-1397366.15388,-1741704.433168,-2083590.636681,-2528820.220091,-3524999.204278,-2488656.281073,-2495183.705709,-2444422.894051,-2438600.89047,-190801.106787,-2530423.644832,-2519725.384679
1.37890625,-480224.368599,-162444.789701,-1480271.635088,-142992.334723,-1397365.080996,-1741704.433168,-2083568.642565,-2528813.782789,-3524997.594952,-2488633.750514,-2495164.930244,-2444415.920307,-2438599.281144,-190833.829741,-2530418.816855,-2519717.874493
1.3828125,-480260.310204,-162506.480516,-1480368.731066,-143053.489095,-1397359.716577,-1741703.896726,-2083723.674264,-2528806.272603,-3524989.548324,-2488617.657258,-2495149.37343,-2444410.019447,-2438686.184726,-190858.506067,-2530407.015134,-2519708.21854
1.38671875,-480258.164437,-162224.848536,-1480487.284718,-142873.78107,-1397368.836089,-1741706.578935,-2083894.262778,-2528814.855673,-3524991.694092,-2488640.724259,-2495167.076012,-2444413.77454,-2438798.837519,-190919.123998,-2530426.327041,-2519715.192284
1.390625,-480257.627995,-162057.478673,-1480544.147556,-142748.790115,-1397359.180136,-1741688.339912,-2083878.169522,-2528803.590393,-3524975.064394,-2488638.042049,-2495157.420058,-2444394.999074,-2438767.72389,-190969.013091,-2530432.227901,-2519700.708354
1.39453125,-480334.339182,-162269.373211,-1480551.121301,-142869.489535,-1397374.200508,-1741706.042493,-2083794.484591,-2528815.392115,-3524989.548324,-2488637.505607,-2495155.810732,-2444406.800795,-2438694.767796,-191025.339487,-2530449.930483,-2519711.437191
1.3984375,-480365.989252,-162392.75484,-1480608.52058,-142966.585513,-1397348.451298,-1741685.657702,-2083895.335662,-2528789.106463,-3524961.653347,-2488596.199584,-2495118.259802,-2444381.051586,-2438766.114565,-191026.948813,-2530418.280413,-2519680.323563
1.40234375,-480375.645205,-162158.329744,-1480702.397907,-142820.136883,-1397355.425043,-1741688.876353,-2084058.950431,-2528795.543765,-3524965.40844,-2488612.29284,-2495131.670848,-2444385.879563,-2438869.111403,-191079.520116,-2530432.227901,-2519685.687981
1.40625,-480424.461415,-161926.586858,-1480753.359884,-142653.839905,-1397401.022601,-1741725.3544,-2084051.976687,-2528840.06844,-3525002.959371,-2488664.864143,-2495182.632826,-2444423.966935,-2438856.236798,-191186.272047,-2530493.382274,-2519726.994005
1.41015625,-480428.216508,-162069.280394,-1480742.631047,-142747.717231,-1397355.425043,-1741679.756842,-2083944.688314,-2528788.033579,-3524951.997394,-2488604.246212,-2495122.551337,-2444375.687167,-2438763.968797,-191183.053396,-2530453.149134,-2519677.104911
1.4140625,-480477.56916,-162262.399466,-1480774.817559,-142874.317512,-1397350.597066,-1741682.975493,-2083985.994337,-2528782.669161,-3524948.778742,-2488582.788537,-2495104.848755,-2444371.395632,-2438794.009542,-191206.656838,-2530444.029623,-2519670.667609
1.41796875,-480536.041324,-162090.201627,-1480849.382979,-142764.346929,-1397389.757322,-1741719.989982,-2084139.416711,-2528820.220091,-3524984.720347,-2488627.313212,-2495146.691221,-2444406.800795,-2438917.927613,-191288.732444,-2530486.944972,-2519708.21854
1.421875,-480566.61851,-161810.715414,-1480900.881398,-142565.863438,-1397405.314136,-1741726.963726,-2084164.629479,-2528832.558254,-3524990.084766,-2488654.135305,-2495168.685337,-2444412.165214,-2438954.40566,-191363.297863,-2530516.449275,-2519716.80161
1.42578125,-480595.586371,-161879.916415,-1480870.840653,-142608.242346,-1397393.512415,-1741715.162005,-2084025.154594,-2528819.68365,-3524974.527952,-2488631.068305,-2495146.154779,-2444397.681284,-2438847.117287,-191399.239468,-2530515.912833,-2519703.390563
1.4296875,-470048.602825,-151446.122103,-1474093.434107,-135408.119608,-1386736.558287,-1730938.044898,-2076160.916824,-2518269.481453,-3514480.652151,-2477967.676874,-2484528.897349,-2433781.496737,-2429338.148753,-180687.56827,-2519954.445357,-2509157.479901
1.43359375,-470544.811552,-151628.512338,-1473498.520076,-135416.166236,-1387120.114222,-1730963.257666,-2075318.703093,-2518660.011132,-3514981.688855,-2478329.775134,-2485031.006936,-2434288.434301,-2426932.20698,-181068.441995,-2520487.668572,-2509663.881023
1.4375,-480860.052211,-161676.604948,-1479755.578012,-142465.012367,-1397431.599788,-1741751.10361,-2082499.513924,-2528833.631138,-3525104.346884,-2488619.266584,-2495284.55678,-2444541.984146,-2435406.915594,-191515.110912,-2530699.912393,-2519861.104472
1.44140625,-480833.76656,-161728.639809,-1479649.362522,-142485.9336,-1397410.678555,-1741798.310494,-2082452.30704,-2528817.00144,-3525045.338278,-2488603.173328,-2495221.793082,-2444476.001796,-2436092.4883,-191553.734726,-2530641.976671,-2519808.533169
1.4453125,-480852.542025,-161950.726742,-1479635.951476,-142643.111067,-1397407.996346,-1741785.972331,-2082538.137738,-2528820.220091,-3525029.781464,-2488595.1267,-2495187.997244,-2444457.762773,-2436704.56847,-191593.967866,-2530614.618136,-2519784.929727
1.44921875,-480890.092956,-161909.95716,-1479727.683035,-142627.554253,-1397430.526904,-1741797.774052,-2082807.431556,-2528838.995557,-3525030.854348,-2488616.047933,-2495191.752337,-2444460.444982,-2437272.123965,-191652.976472,-2530617.300346,-2519783.320401
1.453125,-480885.801421,-161616.523459,-1479857.501967,-142414.05039,-1397419.261625,-1741771.488401,-2083025.763396,-2528826.657394,-3524998.667836,-2488617.120816,-2495177.268407,-2444428.25847,-2437694.840156,-191699.646914,-2530606.035066,-2519748.988122
1.45703125,-480889.020072,-161589.164923,-1479925.093642,-142373.81725,-1397422.480276,-1741765.051098,-2083046.684628,-2528829.339603,-3524993.839859,-2488621.948793,-2495170.831105,-2444420.211842,-2437889.032112,-191758.119077,-2530613.545253,-2519739.332168
1.4609375,-480882.046328,-161806.423879,-1479986.784457,-142525.093856,-1397418.725183,-1741763.978215,-2083093.355071,-2528827.730278,-3524993.839859,-2488607.464863,-2495153.664965,-2444416.456749,-2438045.673137,-191793.524241,-2530609.253718,-2519731.28554
1.46484375,-480868.635281,-161819.834926,-1480105.338109,-142552.988834,-1397404.777694,-1741750.567168,-2083307.931818,-2528812.709905,-3524973.455068,-2488587.080072,-2495130.061523,-2444397.681284,-2438277.952466,-191813.37259,-2530584.577392,-2519708.754982
1.46875,-480839.130978,-161539.812272,-1480243.203669,-142356.114668,-1397407.996346,-1741744.129866,-2083505.342425,-2528811.637021,-3524962.726231,-2488598.881793,-2495133.816616,-2444388.02533,-2438466.780003,-191868.626102,-2530594.233345,-2519700.171912
1.47265625,-480771.002861,-161446.471387,-1480317.769088,-142270.820412,-1397405.314136,-1741737.692563,-2083503.196657,-2528806.809045,-3524952.533835,-2488601.564002,-2495131.134406,-2444377.296493,-2438467.852887,-191924.416056,-2530606.571508,-2519692.661726
1.4765625,-480717.358675,-161652.465064,-1480355.320019,-142412.441064,-1397383.856462,-1741717.844214,-2083484.421192,-2528785.35137,-3524931.076161,-2488561.867304,-2495093.047034,-2444354.765934,-2438453.905398,-191942.118638,-2530586.186717,-2519667.9854
1.48046875,-480709.312047,-161724.348274,-1480443.832927,-142481.642065,-1397381.710694,-1741720.526424,-2083642.671542,-2528779.986951,-3524930.539719,-2488550.602025,-2495081.781755,-2444354.765934,-2438570.313283,-191971.62294,-2530581.895182,-2519665.30319
1.484375,-480686.781488,-161470.074829,-1480559.70437,-142308.907784,-1397417.115857,-1741746.275633,-2083831.49908,-2528812.173463,-3524953.606719,-2488593.517374,-2495119.869127,-2444380.515144,-2438709.251727,-192054.77143,-2530621.591881,-2519692.661726
1.48828125,-480636.892395,-161312.36092,-1480620.858743,-142173.724434,-1397433.209113,-1741752.712936,-2083827.743987,-2528825.58451,-3524960.044022,-2488616.584374,-2495137.571709,-2444386.416004,-2438698.522889,-192130.409733,-2530652.169067,-2519701.781237
1.4921875,-480585.930417,-161496.36048,-1480632.124022,-142292.278086,-1397403.704811,-1741726.963726,-2083755.860776,-2528793.93444,-3524930.539719,-2488570.450374,-2495093.047034,-2444354.229492,-2438627.712563,-192143.284338,-2530626.419857,-2519669.594725
1.49609375,-480583.248208,-161621.351435,-1480687.913977,-142395.274925,-1397391.366648,-1741722.672191,-2083853.493196,-2528782.669161,-3524919.27444,-2488546.31049,-2495072.125801,-2444344.037097,-2438684.575401,-192160.450478,-2530610.326601,-2519656.183679
1.5,-480573.592254,-161405.701805,-1480781.254862,-142258.482249,-1397409.069229,-1741735.546796,-2084024.08171,-2528799.298859,-3524928.393951,-2488570.986816,-2495093.583476,-2444355.302376,-2438775.234076,-192222.141292,-2530631.784276,-2519669.058283
1.50390625,-480540.332859,-161192.197942,-1480840.799909,-142086.820851,-1397410.142113,-1741727.500168,-2084033.201222,-2528796.080207,-3524917.128672,-2488580.106328,-2495095.192801,-2444346.182864,-2438776.843402,-192279.00413,-2530646.268206,-2519661.548097
1.5078125,-480499.563277,-161347.229641,-1480828.461746,-142175.333759,-1397432.672671,-1741752.176494,-2083916.793336,-2528817.537882,-3524943.950766,-2488591.371607,-2495108.603848,-2444370.322748,-2438700.132215,-192349.278015,-2530677.381835,-2519683.005772
1.51171875,-480498.490393,-161519.963922,-1480859.038932,-142309.980668,-1397430.526904,-1741757.540912,-2083956.490035,-2528814.855673,-3524944.487207,-2488572.0597,-2495094.119918,-2444371.932074,-2438737.146704,-192377.709434,-2530672.017416,-2519681.932888
1.515625,-480490.443765,-161354.739827,-1480933.06791,-142212.88469,-1397440.182858,-1741763.441773,-2084116.349711,-2528821.292975,-3524945.023649,-2488580.106328,-2495100.020778,-2444371.932074,-2438843.898635,-192424.379876,-2530681.136928,-2519685.687981
1.51953125,-480460.40302,-161090.273987,-1480986.175655,-142014.401199,-1397438.03709,-1741755.395145,-2084147.999781,-2528815.928556,-3524933.221928,-2488590.835165,-2495104.312313,-2444361.203237,-2438868.038519,-192482.85204,-2530695.620858,-2519678.714237
1.5234375,-480412.123252,-161190.588616,-1480963.645096,-142057.316549,-1397457.348997,-1741776.316378,-2084022.472384,-2528833.094696,-3524953.606719,-2488605.319095,-2495117.186918,-2444380.515144,-2438753.776402,-192551.516599,-2530728.343812,-2519696.953261
1.52734375,-478223.976877,-159229.893593,-1479596.254777,-140734.987347,-1395241.844087,-1739563.493677,-2082427.094272,-2526637.974577,-3522765.996786,-2486369.965836,-2492890.416728,-2442168.228885,-2436862.818821,-190349.959177,-2528520.88553,-2517495.932281
1.53125,-464963.133927,-145871.418222,-1470643.040018,-131416.455676,-1381750.331134,-1725712.564673,-2072090.395938,-2513295.056021,-3509539.486115,-2472884.890185,-2479519.066753,-2428775.957677,-2423868.051036,-176758.668036,-2515223.564532,-2504202.366376
1.53515625,-477406.975914,-157863.576158,-1477927.384129,-139719.502892,-1394371.198937,-1738427.309802,-2080241.630106,-2525763.037892,-3522032.144312,-2485468.743499,-2492167.829534,-2441434.912853,-2432404.986907,-189510.964097,-2527845.505219,-2516773.881528
1.5390625,-480442.700439,-161014.099242,-1479750.213593,-141926.961175,-1397545.861905,-1741928.129426,-2082379.887388,-2528894.249069,-3525105.956209,-2488635.35984,-2495278.119478,-2444547.348565,-2435583.94141,-192770.921322,-2530947.212094,-2519883.63503
1.54296875,-480382.082508,-161236.186175,-1479701.397383,-142082.529316,-1397516.894045,-1741894.87003,-2082442.114644,-2528872.254952,-3525055.530674,-2488599.954677,-2495209.991361,-2444493.704378,-2436305.455721,-192784.332369,-2530884.984837,-2519829.454402
1.546875,-480352.578205,-161186.833523,-1479771.671268,-142077.701339,-1397487.926184,-1741854.63689,-2082705.507601,-2528847.042185,-3525009.396673,-2488574.205467,-2495162.248035,-2444443.815284,-2436977.080938,-192795.597648,-2530831.877092,-2519777.419541
1.55078125,-480322.001019,-160883.743868,-1479882.178293,-141868.489011,-1397505.628765,-1741856.782658,-2082934.568278,-2528859.91679,-3525000.813603,-2488606.928421,-2495173.513314,-2444435.768656,-2437468.99813,-192869.626626,-2530844.751697,-2519772.055122
1.5546875,-480257.627995,-160849.948031,-1479938.504689,-141816.990592,-1397516.357603,-1741856.782658,-2082968.900558,-2528869.572743,-3524997.05851,-2488620.339468,-2495169.758221,-2444430.404238,-2437705.568994,-192937.218301,-2530859.235628,-2519764.544936
1.55859375,-480217.931297,-161073.644289,-1479997.513294,-141967.730757,-1397501.33723,-1741840.689402,-2083018.789651,-2528856.161696,-3524980.965254,-2488590.835165,-2495135.425941,-2444412.165214,-2437869.183763,-192960.821743,-2530840.996604,-2519740.941494
1.5625,-480211.493994,-161091.883313,-1480120.358481,-142002.063036,-1397509.383858,-1741847.663146,-2083240.340142,-2528861.526115,-3524983.111022,-2488591.908049,-2495132.743732,-2444414.847423,-2438122.384324,-193001.591325,-2530839.387278,-2519742.014377
1.56640625,-480188.426994,-160799.522495,-1480262.515576,-141807.87108,-1397506.701649,-1741839.616518,-2083453.844005,-2528855.088813,-3524969.699975,-2488601.564002,-2495136.498825,-2444401.436377,-2438371.293351,-193049.871093,-2530840.996604,-2519730.212656
1.5703125,-480130.491272,-160689.015471,-1480337.617438,-141708.092893,-1397498.118579,-1741819.231727,-2083466.71861,-2528842.75065,-3524952.533835,-2488594.053816,-2495124.697104,-2444381.588028,-2438402.943421,-193098.150861,-2530842.60593,-2519708.754982
1.57421875,-480088.112365,-160900.373566,-1480374.095485,-141840.594034,-1397512.066068,-1741835.324983,-2083439.360075,-2528855.088813,-3524965.40844,-2488591.371607,-2495118.796244,-2444394.462632,-2438395.969676,-193152.33149,-2530858.162744,-2519717.874493
1.578125,-480087.039481,-160981.376288,-1480470.118579,-141916.232338,-1397527.622882,-1741856.782658,-2083584.735821,-2528871.718511,-3524983.111022,-2488600.491118,-2495128.452197,-2444413.238098,-2438520.42419,-193200.611258,-2530872.646674,-2519732.894866
1.58203125,-480066.65469,-160716.910448,-1480594.03665,-141749.935359,-1397517.430486,-1741841.225844,-2083770.344707,-2528857.23458,-3524957.361812,-2488596.199584,-2495120.405569,-2444393.389749,-2438667.409261,-193237.625746,-2530865.67293,-2519715.728726
1.5859375,-480024.275783,-160546.858376,-1480663.774093,-141609.38759,-1397541.57037,-1741857.3191,-2083774.0998,-2528877.619371,-3524970.772859,-2488622.485235,-2495143.472569,-2444404.118586,-2438669.018587,-193317.019143,-2530900.005209,-2519730.212656
1.58984375,-479973.313805,-160737.295239,-1480679.330907,-141720.431056,-1397526.549998,-1741844.980937,-2083695.242845,-2528860.453231,-3524956.288929,-2488593.517374,-2495113.968267,-2444388.561772,-2438593.380284,-193343.304794,-2530890.349256,-2519713.582958
1.59375,-479971.168038,-160873.015031,-1480741.021721,-141832.547406,-1397520.649138,-1741843.908053,-2083789.120172,-2528851.870162,-3524951.460952,-2488572.0597,-2495094.119918,-2444383.197353,-2438648.097354,-193367.98112,-2530879.620419,-2519706.072772
1.59765625,-479960.975642,-160660.04761,-1480833.826164,-141705.947126,-1397531.914417,-1741853.027565,-2083967.218872,-2528862.598999,-3524957.898254,-2488588.152956,-2495108.603848,-2444389.634656,-2438785.962914,-193422.698191,-2530894.104349,-2519712.510075
1.6015625,-479927.179805,-160434.742026,-1480892.298328,-141534.285728,-1397537.278835,-1741850.345355,-2083984.921454,-2528865.281208,-3524953.606719,-2488604.246212,-2495118.796244,-2444384.806679,-2438776.843402,-193484.389005,-2530913.416256,-2519711.437191
1.60546875,-479881.045804,-160587.627958,-1480884.788142,-141614.752008,-1397553.908533,-1741867.511495,-2083871.195778,-2528879.765139,-3524968.627091,-2488608.001305,-2495123.62422,-2444398.754167,-2438670.627912,-193547.152704,-2530938.629024,-2519721.629586
1.609375,-479880.509362,-160776.455495,-1480917.511096,-141754.763336,-1397548.544115,-1741868.584379,-2083914.647569,-2528873.864278,-3524964.871998,-2488585.470746,-2495103.775871,-2444396.071958,-2438697.450006,-193573.438355,-2530931.118838,-2519717.874493
1.61328125,-479874.608502,-160621.960237,-1480998.513818,-141671.078404,-1397559.272952,-1741877.703891,-2084081.48099,-2528881.374464,-3524967.554208,-2488596.199584,-2495113.431825,-2444398.754167,-2438788.108681,-193620.108798,-2530938.629024,-2519722.70247
1.6171875,-479844.031315,-160351.593536,-1481061.277516,-141475.277123,-1397554.444975,-1741863.756402,-2084127.078548,-2528871.182069,-3524953.606719,-2488600.491118,-2495112.895383,-2444382.12447,-2438820.295193,-193670.534333,-2530947.212094,-2519710.364307
1.62109375,-479786.095594,-160448.689514,-1481044.647818,-141516.583147,-1397556.590743,-1741863.756402,-2084017.107966,-2528869.572743,-3524954.679603,-2488591.371607,-2495104.312313,-2444381.051586,-2438739.292471,-193722.569194,-2530959.013815,-2519709.827865
1.625,-479770.002338,-160665.412028,-1481051.621562,-141668.396195,-1397539.424603,-1741855.709774,-2084017.107966,-2528852.406603,-3524940.195673,-2488557.039327,-2495073.735127,-2444370.85919,-2438743.584006,-193738.126008,-2530941.847675,-2519694.807493
1.62890625,-475440.916472,-156302.530325,-1478300.747669,-138720.111694,-1393063.890107,-1737359.254045,-2080914.864649,-2524417.641689,-3520518.841805,-2484081.504831,-2490611.075236,-2439900.152671,-2434950.940007,-189262.591513,-2526497.963249,-2515254.678161
1.6328125,-465058.620579,-145671.861848,-1470908.042301,-131263.033302,-1382315.740861,-1726239.887028,-2072254.547149,-2513793.410515,-3510012.627842,-2473346.766632,-2480005.083085,-2429261.437566,-2423666.348894,-178452.751452,-2515966.536518,-2504702.330196
1.63671875,-478549.59709,-159015.316846,-1479118.821516,-140497.880041,-1396268.057378,-1740456.669385,-2081458.28026,-2527573.529193,-3523792.210077,-2487246.511846,-2493933.259718,-2443220.191386,-2433863.572343,-192549.370831,-2529866.281732,-2518566.133805
1.640625,-479767.85657,-160524.327817,-1479814.586617,-141562.717147,-1397576.975534,-1741964.607473,-2082404.027272,-2528869.036301,-3525042.119627,-2488546.31049,-2495179.414174,-2444483.511982,-2435669.772109,-193913.542499,-2531110.826863,-2519832.136611
1.64453125,-479739.961593,-160502.870143,-1479829.070548,-141570.763775,-1397583.412836,-1741956.560845,-2082657.764275,-2528878.692255,-3525016.90686,-2488552.21135,-2495155.810732,-2444458.835657,-2436471.7527,-193959.140057,-2531079.176793,-2519809.069611
1.6484375,-479704.55643,-160206.21779,-1479917.047014,-141369.061633,-1397605.943394,-1741958.706612,-2082898.626673,-2528900.686371,-3525009.933115,-2488590.835165,-2495168.685337,-2444451.861912,-2437080.077777,-194040.142779,-2531091.514956,-2519803.16875
1.65234375,-479636.428313,-160170.276185,-1479964.79034,-141314.344563,-1397623.645976,-1741964.607473,-2082953.343743,-2528918.388953,-3525013.688208,-2488613.365723,-2495173.513314,-2444453.471238,-2437396.578478,-194116.853966,-2531111.899747,-2519801.022983
1.65625,-479591.903638,-160405.774165,-1480015.752317,-141467.230495,-1397612.917139,-1741952.26931,-2083026.299837,-2528907.660116,-3525002.422929,-2488587.616514,-2495142.399686,-2444435.768656,-2437639.586644,-194147.431153,-2531095.806491,-2519779.565308
1.66015625,-479577.419707,-160439.570003,-1480131.623761,-141516.583147,-1397585.558603,-1741923.301449,-2083274.13598,-2528877.619371,-3524967.017766,-2488551.674909,-2495103.239429,-2444401.436377,-2437953.405136,-194152.25913,-2531056.109793,-2519740.405052
1.6640625,-479553.816265,-160155.792255,-1480272.707972,-141332.047144,-1397579.121301,-1741907.744635,-2083517.680587,-2528867.426976,-3524945.023649,-2488557.575769,-2495097.875011,-2444382.660911,-2438186.757348,-194196.783805,-2531053.427583,-2519721.093145
1.66796875,-479503.39073,-160044.212347,-1480355.320019,-141228.513864,-1397602.188301,-1741920.61924,-2083559.523053,-2528888.348208,-3524961.653347,-2488586.007188,-2495116.650476,-2444394.462632,-2438222.698953,-194278.322968,-2531087.223421,-2519733.967749
1.671875,-479461.548264,-160267.908605,-1480393.943834,-141362.087889,-1397618.281557,-1741938.321821,-2083563.814588,-2528904.441464,-3524978.819487,-2488587.080072,-2495115.577592,-2444410.555888,-2438257.567675,-194336.25869,-2531107.07177,-2519745.76947
1.67578125,-479456.183846,-160367.686792,-1480486.748277,-141451.137239,-1397598.433208,-1741925.983659,-2083745.668381,-2528884.056674,-3524957.898254,-2488554.89356,-2495088.219057,-2444392.853307,-2438395.433235,-194347.523969,-2531084.00477,-2519724.311796
1.6796875,-479443.309241,-160121.459975,-1480611.20279,-141299.324191,-1397614.526464,-1741933.493845,-2083975.2655,-2528893.712627,-3524960.044022,-2488576.351234,-2495104.312313,-2444397.681284,-2438542.954748,-194407.605458,-2531102.243793,-2519731.28554
1.68359375,-479398.784566,-159943.361276,-1480691.66907,-141156.630654,-1397619.354441,-1741928.665868,-2084019.790175,-2528893.712627,-3524953.606719,-2488586.007188,-2495107.530964,-2444390.707539,-2438561.193772,-194469.296273,-2531118.337049,-2519727.530447
1.6875,-479344.067495,-160133.261696,-1480710.444535,-141268.210562,-1397589.850138,-1741901.843775,-2083965.073105,-2528864.208324,-3524924.102417,-2488544.164722,-2495064.615615,-2444360.130353,-2438506.476701,-194484.853087,-2531096.879375,-2519696.416819
1.69140625,-479336.557309,-160282.928977,-1480762.479396,-141385.691331,-1397572.683999,-1741890.578495,-2084064.31485,-2528845.432859,-3524908.009161,-2488511.97821,-2495035.111312,-2444346.182864,-2438555.829353,-194495.581924,-2531076.494584,-2519676.56847
1.6953125,-479327.974239,-160081.763277,-1480851.528746,-141269.819888,-1397599.506092,-1741915.791263,-2084249.387294,-2528869.572743,-3524928.393951,-2488542.018955,-2495064.079173,-2444365.494772,-2438694.767796,-194564.246483,-2531105.462444,-2519698.562586
1.69921875,-479296.860611,-159848.411065,-1480912.146677,-141094.939839,-1397619.890883,-1741928.129426,-2084286.938225,-2528886.202441,-3524938.586347,-2488571.523258,-2495088.219057,-2444372.468516,-2438709.788169,-194641.494112,-2531140.331166,-2519710.900749
1.703125,-479246.435076,-160000.224113,-1480907.3187,-141167.895933,-1397643.494325,-1741949.587101,-2084191.451572,-2528908.196558,-3524960.044022,-2488582.252095,-2495099.484336,-2444394.462632,-2438606.79133,-194711.767997,-2531170.908352,-2519731.28554
1.70703125,-479246.971517,-160204.072023,-1480939.505212,-141310.58947,-1397678.899488,-1741990.893124,-2084235.976247,-2528941.992395,-3524997.594952,-2488599.418235,-2495120.942011,-2444430.940679,-2438648.097354,-194779.896114,-2531203.631306,-2519764.544936
1.7109375,-479235.169796,-160056.55051,-1481013.53419,-141239.779143,-1397646.712976,-1741957.633729,-2084414.611389,-2528905.514348,-3524957.361812,-2488566.695281,-2495084.463964,-2444391.243981,-2438794.545984,-194783.114765,-2531169.299027,-2519725.921121
1.71484375,-479208.884145,-159773.845646,-1481074.152121,-141040.759211,-1397654.759604,-1741954.951519,-2084474.156436,-2528906.05079,-3524949.851626,-2488581.715653,-2495095.729243,-2444389.098214,-2438835.852007,-194845.878463,-2531190.756701,-2519725.921121
1.71875,-479147.729772,-159855.384809,-1481062.3504,-141070.799955,-1397645.103651,-1741943.68624,-2084365.795179,-2528897.46772,-3524941.268556,-2488565.622397,-2495078.026662,-2444377.296493,-2438730.17296,-194887.720929,-2531192.366027,-2519714.655842
1.72265625,-479128.954307,-160074.789533,-1481066.641935,-141221.54012,-1397632.765488,-1741938.858263,-2084363.649412,-2528881.910906,-3524932.685486,-2488536.118094,-2495052.277452,-2444368.176981,-2438703.350866,-194907.032836,-2531180.027864,-2519700.171912
1.7265625,-479020.59305,-159887.03488,-1481065.032609,-141128.199235,-1397545.861905,-1741854.100448,-2084450.016552,-2528793.93444,-3524838.80816,-2488444.922977,-2494963.228102,-2444276.445422,-2438723.199215,-194855.534417,-2531091.514956,-2519610.049678
1.73046875,-467330.988327,-148055.809504,-1473220.106747,-132981.793044,-1385268.316897,-1729415.62288,-2075353.035373,-2516648.354131,-3512759.746642,-2476200.100923,-2482766.685816,-2432044.497972,-2427691.808664,-182524.345222,-2518957.199926,-2507471.443113
1.734375,-470484.193621,-151082.414518,-1474395.987319,-134932.295672,-1388591.574263,-1732445.446544,-2076370.129153,-2519944.789403,-3516159.715195,-2479490.098892,-2486194.012903,-2435484.163223,-2427531.948987,-185883.007751,-2522418.859293,-2510889.650689
1.73828125,-479134.318725,-159894.545066,-1479866.621478,-141095.476281,-1397708.403791,-1742030.589823,-2082669.565996,-2528929.654232,-3525091.472279,-2488551.138467,-2495218.574431,-2444544.129913,-2435110.263242,-195114.635839,-2531413.380076,-2519893.290984
1.7421875,-479085.502515,-159875.233158,-1479829.070548,-141109.960212,-1397683.727465,-1742058.4848,-2082883.606301,-2528911.951651,-3525032.463674,-2488534.508769,-2495156.883616,-2444480.293331,-2436007.194043,-195132.33842,-2531343.642633,-2519837.50103
1.74609375,-479031.321887,-159561.951108,-1479896.662223,-140910.940279,-1397658.514697,-1742011.277915,-2083119.640722,-2528889.421092,-3524976.673719,-2488530.217234,-2495118.796244,-2444420.748284,-2436731.927005,-195163.988491,-2531301.800168,-2519781.711076
1.75,-478954.074258,-159495.432317,-1479937.968247,-140840.666394,-1397688.019,-1742024.15252,-2083170.6027,-2528917.316069,-3524985.793231,-2488564.013072,-2495132.20729,-2444426.112703,-2437134.258405,-195253.574282,-2531325.40361,-2519787.611936
1.75390625,-478896.674978,-159718.055691,-1479983.029364,-140980.677722,-1397684.800349,-1742016.642334,-2083227.465537,-2528916.243186,-3524976.137278,-2488548.992699,-2495105.921639,-2444416.456749,-2437433.056525,-195291.125213,-2531316.82054,-2519769.909354
1.7578125,-478880.581722,-159756.143064,-1480098.900807,-141029.493931,-1397714.304652,-1742044.537311,-2083460.81775,-2528943.601721,-3525000.277162,-2488570.450374,-2495123.087778,-2444438.987307,-2437785.498832,-195355.498237,-2531337.205331,-2519787.611936
1.76171875,-478848.931652,-159460.027153,-1480245.349436,-140844.957929,-1397736.298768,-1742054.193265,-2083711.336101,-2528960.231419,-3525005.64158,-2488602.100444,-2495143.472569,-2444446.497494,-2438102.535975,-195425.23568,-2531359.735889,-2519795.122122
1.765625,-478786.167954,-159313.042082,-1480336.544554,-140730.15937,-1397711.086,-1742022.006753,-2083764.980288,-2528936.627976,-3524971.309301,-2488586.007188,-2495117.72336,-2444412.165214,-2438189.439558,-195461.177285,-2531347.934168,-2519761.862726
1.76953125,-478729.841558,-159520.108643,-1480384.28788,-140854.077441,-1397709.476675,-1742022.543195,-2083753.178567,-2528933.945767,-3524969.699975,-2488570.450374,-2495101.630104,-2444409.483005,-2438205.532814,-195503.556192,-2531346.861285,-2519754.888982
1.7734375,-478718.576279,-159619.350388,-1480482.993183,-140940.444582,-1397723.960605,-1742038.100009,-2083913.574685,-2528943.601721,-3524980.965254,-2488571.523258,-2495102.702988,-2444421.821168,-2438341.252606,-195547.544425,-2531354.907913,-2519763.472052
1.77734375,-478695.509278,-159354.884548,-1480619.78586,-140788.095091,-1397728.25214,-1742035.417799,-2084133.515851,-2528943.601721,-3524972.382185,-2488581.179211,-2495106.994522,-2444413.77454,-2438524.715725,-195594.75131,-2531360.272331,-2519760.253401
1.78125,-478641.865092,-159137.625591,-1480710.444535,-140630.381182,-1397714.841093,-1742014.496567,-2084182.868502,-2528928.044907,-3524951.460952,-2488578.497002,-2495096.802127,-2444391.780423,-2438565.485306,-195642.494636,-2531360.808773,-2519738.259284
1.78515625,-478578.028509,-159307.677663,-1480732.975093,-140725.331393,-1397700.893605,-1742002.158404,-2084122.250572,-2528915.170302,-3524938.586347,-2488551.674909,-2495070.516476,-2444378.369376,-2438519.351306,-195673.608264,-2531353.298587,-2519719.483819
1.7890625,-478565.690346,-159454.662735,-1480794.665908,-140839.593511,-1397714.841093,-1742024.688962,-2084215.055014,-2528928.581348,-3524954.679603,-2488553.284234,-2495074.271569,-2444392.853307,-2438585.333656,-195718.132939,-2531364.027424,-2519732.358424
1.79296875,-478544.232672,-159236.867337,-1480895.516979,-140725.331393,-1397709.476675,-1742013.960125,-2084407.101203,-2528914.63386,-3524936.440579,-2488546.846932,-2495067.297824,-2444376.760051,-2438699.595773,-195751.928777,-2531359.735889,-2519719.483819
1.796875,-478502.926648,-158967.037078,-1480973.837492,-140536.503856,-1397713.231768,-1742007.522822,-2084452.16232,-2528916.243186,-3524926.784626,-2488558.648653,-2495073.735127,-2444371.395632,-2438726.417867,-195812.546708,-2531377.974913,-2519715.728726
1.80078125,-478436.944298,-159092.028033,-1480978.129027,-140596.585345,-1397698.747837,-1741993.038892,-2084360.967202,-2528900.686371,-3524914.446463,-2488535.045211,-2495048.522359,-2444356.911702,-2438638.977842,-195846.342545,-2531373.146936,-2519699.099028
1.8046875,-478420.851042,-159289.43864,-1481014.070632,-140735.523788,-1397683.727465,-1741985.528706,-2084406.564761,-2528885.665999,-3524906.399835,-2488503.395141,-2495021.163824,-2444346.182864,-2438628.249005,-195864.045127,-2531357.590122,-2519686.760865
1.80859375,-478409.585763,-159140.844243,-1481095.609796,-140669.004997,-1397707.867349,-1742006.98638,-2084580.371926,-2528903.368581,-3524918.737998,-2488523.779932,-2495041.548615,-2444361.739679,-2438734.464495,-195919.835081,-2531377.974913,-2519702.854121
1.8125,-478376.326367,-158830.780844,-1481171.784541,-140465.693529,-1397723.424163,-1742015.033008,-2084645.281392,-2528913.560976,-3524920.883765,-2488550.602025,-2495061.396964,-2444363.349004,-2438796.691751,-195990.108966,-2531406.942774,-2519709.827865
