Index,Timestamp,Fp1,Fp2,F3,F4,T5,T6,O1,O2,F7,F8,C3,C4,T3,T4,P3,P4
0.0,0.0,0.0,0.0,0.0,0.0,0.0,0.0,0.0,0.0,0.0,0.0,0.0,0.0,0.0,0.0,0.0,0.0
1.0,0.00390625,-262675.197443,86515.734972,-1630518.273177,30030.552152,-1508926.750294,-1890120.731607,-2298028.445009,-2547501.808107,-3510597.885918,-2468817.051508,-2474461.492832,-2441377.513573,-2446561.687775,23704.293216,-2543326.681057,-2525069.955
2.0,0.0078125,-262862.415655,86407.910157,-1630706.564272,30017.677548,-1508946.598643,-1890147.017258,-2298367.476269,-2547511.464061,-3510604.323221,-2468820.270159,-2474472.758111,-2441385.023759,-2446501.069844,23398.521352,-2543322.925964,-2525078.001628
3.0,0.01171875,-262860.269887,86326.907435,-1630767.182203,30133.012549,-1508932.114712,-1890124.4867,-2298449.015432,-2547484.105526,-3510578.574011,-2468801.494694,-2474451.300436,-2441352.837247,-2446679.704986,23476.305422,-2543301.468289,-2525046.887999
4.0,0.015625,-262640.328722,86735.676138,-1630653.992969,30194.703364,-1508925.140968,-1890110.539211,-2298173.820755,-2547475.522456,-3510565.162964,-2468797.739601,-2474441.108041,-2441345.327061,-2446836.346011,23809.972264,-2543310.051359,-2525040.987139
5.0,0.01953125,-262597.413373,86737.821905,-1630671.695551,30114.773526,-1508926.213852,-1890116.440072,-2298122.322336,-2547475.522456,-3510564.090081,-2468788.620089,-2474435.743622,-2441347.472828,-2446781.62894,23819.091775,-2543314.342894,-2525041.523581
6.0,0.0234375,-262766.392561,86678.8133,-1630849.794251,30052.546269,-1508949.280852,-1890145.407932,-2298433.99506,-2547489.469944,-3510585.011314,-2468796.130275,-2474449.154669,-2441365.17541,-2446701.16266,23668.351611,-2543312.197126,-2525054.398186
7.0,0.02734375,-260849.149328,84901.581395,-1623897.507655,28622.392252,-1499154.925246,-1880430.445722,-2291513.894977,-2537827.079037,-3501028.835896,-2459066.684135,-2464744.384854,-2431634.656386,-2437002.830148,22399.666595,-2533632.103638,-2515402.199674
8.0,0.03125,-259732.277361,83939.204686,-1619984.700678,27874.055847,-1495375.155851,-1876783.177469,-2287520.621719,-2534136.358993,-3497522.651854,-2455312.66395,-2461140.568392,-2428025.475505,-2430764.011236,22111.060871,-2530088.905107,-2511840.225678
9.0,0.03515625,-262618.334605,86872.468814,-1629062.36995,30193.63048,-1508880.616293,-1890209.244515,-2296611.702038,-2547405.785013,-3510642.947035,-2468693.133437,-2474513.527693,-2441425.793341,-2443603.210879,23990.216731,-2543405.538011,-2525142.374652
10.0,0.0390625,-262758.345933,86817.215302,-1629223.30251,30152.324456,-1508980.930922,-1890274.690422,-2296982.91981,-2547505.5632,-3510693.909013,-2468792.375182,-2474566.635438,-2441480.510411,-2444671.266636,23703.756774,-2543437.188081,-2525194.945955
11.0,0.04296875,-262808.771468,87007.115723,-1629378.33421,30232.254294,-1508965.91055,-1890234.993724,-2297268.306883,-2547489.469944,-3510644.019919,-2468790.229415,-2474525.865856,-2441435.449295,-2445180.886409,23616.31675,-2543381.934569,-2525144.520419
12.0,0.046875,-262582.393,87166.975399,-1629403.010536,30346.516412,-1508960.546131,-1890202.807212,-2297135.805742,-2547490.542828,-3510618.807151,-2468803.640461,-2474508.163274,-2441405.944992,-2445833.736161,23928.525916,-2543377.643034,-2525120.380535
13.0,0.05078125,-262411.804487,87061.296351,-1629441.097908,30315.939226,-1508966.446992,-1890193.6877,-2297028.517369,-2547499.125898,-3510619.880035,-2468810.614206,-2474501.725972,-2441398.971248,-2446167.939445,24103.942407,-2543382.471011,-2525112.333907
14.0,0.0546875,-262520.165744,86940.060489,-1629672.840795,30229.035643,-1508973.420736,-1890200.661445,-2297334.825675,-2547501.271665,-3510615.5885,-2468806.322671,-2474494.752228,-2441402.189899,-2446329.944888,23858.252032,-2543364.768429,-2525103.750837
15.0,0.05859375,-262621.016815,87100.993049,-1629927.650681,30288.044249,-1508957.863922,-1890179.20377,-2297679.221353,-2547477.668223,-3510583.93843,-2468790.229415,-2474472.758111,-2441371.07627,-2446422.212889,23709.657634,-2543330.972592,-2525071.564325
16.0,0.0625,-262437.553696,87308.05961,-1630010.262729,30377.63004,-1508949.280852,-1890157.746095,-2297602.510166,-2547469.085153,-3510567.308732,-2468795.593833,-2474460.95639,-2441351.227921,-2446565.97931,24107.161058,-2543328.826824,-2525056.007511
17.0,0.06640625,-262234.778671,87248.514563,-1630024.210218,30207.041527,-1508965.91055,-1890175.448677,-2297417.437722,-2547496.443688,-3510595.740151,-2468818.660834,-2474478.658972,-2441372.149154,-2446829.372266,24308.326758,-2543356.721801,-2525076.392302
18.0,0.0703125,-262314.172067,87102.065933,-1630214.64708,30329.350272,-1508977.175829,-1890192.614817,-2297629.868702,-2547509.318293,-3510604.859663,-2468823.48881,-2474484.559832,-2441390.92462,-2446802.550173,24058.88129,-2543361.013336,-2525088.730465
19.0,0.07421875,-262453.646952,87210.42719,-1630463.019665,30407.670785,-1508971.81141,-1890187.78684,-2297990.357636,-2547495.907247,-3510583.93843,-2468813.296415,-2474471.685227,-2441374.831364,-2446718.3288,23846.450311,-2543336.33701,-2525071.564325
20.0,0.078125,-262328.655997,87443.24296,-1630550.459689,30543.390577,-1508959.473247,-1890162.574072,-2297970.509287,-2547482.4962,-3510565.162964,-2468812.223531,-2474458.810623,-2441349.618596,-2446784.847592,24192.455315,-2543328.290382,-2525053.325302
21.0,0.08203125,-262080.819855,87424.467495,-1630522.564712,30566.994019,-1508950.353736,-1890148.626584,-2297737.157075,-2547474.986014,-3510576.964686,-2468809.541322,-2474451.300436,-2441341.035526,-2447071.84399,24538.996761,-2543327.753941,-2525046.887999
22.0,0.0859375,-262125.880972,87264.071377,-1630643.800574,30476.871786,-1508985.222457,-1890189.932607,-2297858.929379,-2547505.5632,-3510605.932546,-2468829.389671,-2474484.02339,-2441378.586457,-2447145.336526,24264.874967,-2543350.284499,-2525076.928744
23.0,0.08984375,-262294.323718,87313.424029,-1630861.595972,30473.116693,-1508993.805527,-1890201.734328,-2298224.782732,-2547504.490316,-3510602.177453,-2468827.243904,-2474486.169158,-2441381.268666,-2447033.756618,23999.336243,-2543338.482778,-2525076.928744
24.0,0.09375,-262227.268485,87558.04152,-1630935.624949,30608.300043,-1508980.930922,-1890180.276654,-2298261.797221,-2547486.787735,-3510575.891802,-2468819.197276,-2474472.758111,-2441361.420317,-2447105.103386,24156.51371,-2543332.045475,-2525059.762604
25.0,0.09765625,-261980.505226,87587.545823,-1630866.96039,30658.725579,-1508987.904666,-1890180.813096,-2297998.404264,-2547498.589456,-3510586.084197,-2468831.535438,-2474480.804739,-2441368.930503,-2447277.837667,24492.86276,-2543361.013336,-2525071.564325
26.0,0.1015625,-261968.703505,87422.321728,-1630943.671577,30577.722857,-1508939.624898,-1890136.288421,-2298033.809427,-2547445.481711,-3510542.095964,-2468771.990391,-2474426.087669,-2441320.650735,-2447236.531643,24445.119434,-2543313.806452,-2525020.602348
27.0,0.10546875,-262137.146251,87337.027471,-1631141.082184,30455.950553,-1508956.791038,-1890159.891863,-2298371.767804,-2547454.064781,-3510554.434127,-2468780.037019,-2474435.20718,-2441333.52534,-2447123.878851,24256.291897,-2543310.051359,-2525029.72186
28.0,0.109375,-262129.099623,87281.237517,-1631211.892511,30535.880391,-1508994.341969,-1890199.052119,-2298475.837526,-2547490.542828,-3510583.93843,-2468828.316787,-2474475.44032,-2441362.493201,-2447202.199364,24432.781271,-2543333.654801,-2525063.517697
29.0,0.11328125,-261907.01269,87706.099475,-1631113.723649,30772.987696,-1509003.997922,-1890202.807212,-2298212.981011,-2547500.198782,-3510593.594383,-2468844.946485,-2474482.414065,-2441366.248294,-2447377.615854,24607.124878,-2543356.18536,-2525071.027883
30.0,0.1171875,-261863.560899,87723.265615,-1631130.889789,30708.07823,-1509015.799643,-1890217.291143,-2298159.336824,-2547509.854735,-3510605.396105,-2468843.873601,-2474485.632716,-2441383.950875,-2447386.198924,24636.629181,-2543371.742174,-2525079.610953
31.0,0.12109375,-262024.493459,87668.548544,-1631304.696954,30649.069625,-1509016.336085,-1890223.728445,-2298475.837526,-2547500.198782,-3510597.885918,-2468827.243904,-2474477.586088,-2441379.122898,-2447274.082574,24349.632782,-2543352.966708,-2525070.491442
32.0,0.125,-261775.584433,87593.983125,-1630306.37864,30526.760879,-1507439.733438,-1888654.099542,-2297547.793096,-2545935.934298,-3509041.131621,-2467259.224327,-2472908.493627,-2439795.010065,-2445818.179347,24150.612849,-2541785.483573,-2523504.08119
33.0,0.12890625,-258239.359646,84258.924038,-1618527.188126,27956.667895,-1491834.63953,-1873210.474635,-2285712.276186,-2530582.431624,-3493921.517601,-2451766.78321,-2457504.028976,-2424366.405531,-2429453.483755,22457.602317,-2526483.479319,-2508204.759145
34.0,0.1328125,-260784.239862,86731.384603,-1626249.805242,29924.873105,-1504231.274632,-1885619.984343,-2293409.680535,-2542783.265446,-3506103.575957,-2464040.573125,-2469890.471684,-2436786.644076,-2439278.416548,24285.259758,-2538835.589747,-2520532.729689
35.0,0.13671875,-262008.400203,87825.18957,-1629649.773794,30761.185975,-1509069.44383,-1890394.853401,-2297027.444485,-2547528.093759,-3510748.626083,-2468834.75409,-2474635.299997,-2441539.519017,-2444945.924872,24584.057878,-2543533.747617,-2525251.808793
36.0,0.140625,-262060.971506,88001.142502,-1629763.49947,30835.214953,-1509070.516714,-1890361.057563,-2297303.712047,-2547532.385294,-3510707.320059,-2468849.774462,-2474605.795694,-2441497.140109,-2445703.91723,24479.451713,-2543486.540733,-2525214.794304
37.0,0.14453125,-261848.540526,88155.101318,-1629783.347819,30946.794861,-1509056.569225,-1890315.996446,-2297200.715208,-2547523.265782,-3510664.40471,-2468850.310904,-2474570.390531,-2441452.615434,-2446270.936283,24779.859159,-2543461.864407,-2525173.48828
38.0,0.1484375,-261696.191036,88040.302758,-1629842.892866,30911.92614,-1509035.647993,-1890277.372632,-2297098.254812,-2547503.953875,-3510635.973291,-2468829.389671,-2474529.620949,-2441416.673829,-2446704.917753,24961.17651,-2543434.505872,-2525132.182256
39.0,0.15234375,-261808.843828,87895.999896,-1630092.338335,30814.830162,-1509038.866644,-1890277.909074,-2297409.927536,-2547500.198782,-3510628.999547,-2468820.270159,-2474517.282786,-2441411.30941,-2446802.550173,24712.803926,-2543414.657523,-2525116.089
40.0,0.15625,-261932.7619,88025.818828,-1630363.241477,30858.818395,-1509051.741249,-1890285.41926,-2297781.145308,-2547505.026758,-3510621.489361,-2468832.07188,-2474523.183647,-2441412.382294,-2446943.097942,24538.460319,-2543406.074453,-2525113.406791
41.0,0.16015625,-261775.584433,88215.719249,-1630456.04592,30981.127141,-1509035.647993,-1890254.305631,-2297744.667261,-2547491.07927,-3510599.495244,-2468829.926113,-2474502.798856,-2441382.877992,-2447122.269526,24957.421417,-2543392.126965,-2525092.485558
42.0,0.1640625,-261576.5645,88136.325852,-1630489.305316,30967.716094,-1509031.8929,-1890242.50391,-2297573.005864,-2547488.933502,-3510604.859663,-2468831.535438,-2474490.460693,-2441374.294922,-2447394.245552,25210.621978,-2543381.398127,-2525084.975372
43.0,0.16796875,-261671.51471,87955.544943,-1630688.861691,30718.807068,-1509038.330202,-1890255.378515,-2297789.728378,-2547494.834363,-3510608.078314,-2468829.389671,-2474490.460693,-2441382.34155,-2447336.846273,24850.669485,-2543374.960825,-2525084.975372
44.0,0.171875,-261838.348131,88019.381525,-1630939.380042,30754.748673,-1509046.37683,-1890273.081097,-2298166.84701,-2547502.880991,-3510610.760523,-2468837.436299,-2474500.116646,-2441390.388178,-2447346.502226,24599.07825,-2543369.596406,-2525090.339791
45.0,0.17578125,-261744.470804,88221.620109,-1631006.971718,31029.943351,-1509046.913272,-1890263.961585,-2298169.52922,-2547502.880991,-3510604.323221,-2468847.092253,-2474504.944623,-2441384.487317,-2447526.210252,24792.197322,-2543379.788802,-2525088.730465
46.0,0.1796875,-261529.894057,88179.241202,-1630988.196252,31044.427281,-1509054.423458,-1890263.425143,-2297934.03124,-2547513.609828,-3510609.151198,-2468855.675322,-2474504.408181,-2441388.24241,-2447652.27409,25082.412372,-2543403.928686,-2525095.704209
47.0,0.18359375,-261576.5645,87985.049246,-1631141.618626,30939.284675,-1509044.231062,-1890263.425143,-2298045.074707,-2547500.735223,-3510601.641011,-2468836.363415,-2474487.778483,-2441381.805108,-2447593.801927,24956.348533,-2543388.908313,-2525082.293163
48.0,0.1875,-261757.881851,87998.460293,-1631374.434397,30913.535465,-1509072.12604,-1890296.684539,-2298404.490758,-2547521.120014,-3510620.952919,-2468854.065997,-2474512.454809,-2441403.262782,-2447481.685577,24786.832903,-2543395.345616,-2525102.141512
49.0,0.19140625,-261718.721595,88215.719249,-1631462.410863,31034.771327,-1509057.105667,-1890272.008213,-2298466.181572,-2547503.953875,-3510604.323221,-2468844.946485,-2474496.897995,-2441379.122898,-2447651.201207,24836.721997,-2543373.351499,-2525082.829604
50.0,0.1953125,-261493.416011,88220.010784,-1631409.83956,31072.8587,-1509042.085295,-1890249.477655,-2298202.788616,-2547487.860619,-3510584.474872,-2468833.681206,-2474480.268297,-2441364.638968,-2447861.486418,25106.015814,-2543377.106592,-2525071.564325
51.0,0.19921875,-261504.68129,88022.600177,-1631503.180445,30973.080513,-1509038.866644,-1890250.014097,-2298222.100523,-2547481.423316,-3510581.792662,-2468814.905741,-2474463.638599,-2441361.956759,-2447806.769348,25051.298744,-2543371.205732,-2525062.981255
52.0,0.203125,-261695.654594,87930.868617,-1631712.392773,30917.827,-1509058.714993,-1890277.909074,-2298557.37669,-2547493.761479,-3510595.740151,-2468820.806601,-2474478.12253,-2441377.513573,-2447717.719998,24738.553135,-2543370.66929,-2525074.782976
53.0,0.20703125,-261715.502943,87824.116686,-1631805.733658,30981.127141,-1509059.787877,-1890275.763306,-2298672.175249,-2547484.105526,-3510585.011314,-2468819.197276,-2474475.44032,-2441364.102526,-2447775.119278,24829.748253,-2543365.304871,-2525065.127023
54.0,0.2109375,-261506.827057,88130.961434,-1631744.579285,30933.920256,-1509044.767504,-1890255.378515,-2298402.34499,-2547473.376688,-3510563.553639,-2468815.978624,-2474455.591971,-2441343.181293,-2447892.063605,25325.95698,-2543357.794685,-2525051.179534
55.0,0.21484375,-261469.276127,88185.142062,-1631798.223471,31013.313653,-1509050.131923,-1890265.034469,-2298333.680431,-2547481.423316,-3510582.329104,-2468812.223531,-2474452.909762,-2441352.837247,-2447908.156861,25173.071047,-2543358.331127,-2525057.080395
56.0,0.21875,-261650.057036,88089.118968,-1631996.17052,30952.695722,-1509080.709109,-1890304.194725,-2298640.525179,-2547502.880991,-3510609.151198,-2468826.707462,-2474477.586088,-2441380.732224,-2447805.160022,24824.920276,-2543367.987081,-2525079.074511
57.0,0.22265625,-261723.01313,88268.290552,-1632125.45301,31036.380653,-1509089.828621,-1890312.241353,-2298824.524739,-2547505.5632,-3510602.177453,-2468833.681206,-2474484.559832,-2441383.950875,-2447894.745814,24777.713392,-2543369.596406,-2525081.220279
58.0,0.2265625,-259984.405039,86798.976278,-1626475.110826,29885.712848,-1501370.430156,-1882646.487075,-2293064.211972,-2539892.916667,-3503069.460758,-2461166.317602,-2466828.997949,-2433712.832178,-2440322.868862,24077.120313,-2535769.288036,-2517473.401722
59.0,0.23046875,-258226.485041,84747.086137,-1619909.062375,28344.515365,-1493785.142158,-1875229.105381,-2286566.291638,-2532449.249321,-3495840.906601,-2453612.679674,-2459430.928162,-2426316.908159,-2430525.831047,23165.16914,-2528444.174343,-2510145.069378
60.0,0.234375,-261672.051152,87972.711083,-1630109.504474,30876.520977,-1508671.940407,-1890047.239071,-2296872.949227,-2547077.48259,-3510329.664985,-2468353.565735,-2474197.026991,-2441114.120616,-2444399.290609,24898.949253,-2543121.223822,-2524828.019718
61.0,0.23828125,-261865.706666,88256.488831,-1630502.179921,31041.745072,-1509123.088017,-1890452.25268,-2297435.140304,-2547522.72934,-3510714.830245,-2468815.978624,-2474597.749066,-2441504.650295,-2445824.61665,24807.754136,-2543502.097547,-2525227.668909
62.0,0.2421875,-261658.103664,88383.089111,-1630511.299433,31136.15884,-1509101.630342,-1890390.025424,-2297314.440884,-2547506.636084,-3510663.868268,-2468811.687089,-2474553.760833,-2441449.933225,-2446588.509868,25079.730163,-2543464.546617,-2525175.097606
63.0,0.24609375,-261469.276127,88238.249807,-1630590.692829,31088.415514,-1509072.662481,-1890341.209214,-2297187.840603,-2547485.178409,-3510624.17157,-2468790.229415,-2474504.408181,-2441405.944992,-2447031.074408,25250.855118,-2543431.287221,-2525127.890721
64.0,0.25,-261591.584872,88053.177363,-1630891.636716,30970.398303,-1509065.688737,-1890331.016818,-2297474.837002,-2547474.986014,-3510602.713895,-2468772.526833,-2474477.049646,-2441387.705968,-2447198.444271,24987.462161,-2543396.4185,-2525099.995744
65.0,0.25390625,-261745.543688,88139.544504,-1631216.184046,30990.783094,-1509071.053156,-1890328.334609,-2297838.008146,-2547471.230921,-3510584.474872,-2468773.063275,-2474471.148785,-2441374.831364,-2447337.382714,24777.17695,-2543375.497267,-2525083.902488
66.0,0.2578125,-261618.406966,88298.867738,-1631359.414024,31096.998584,-1509091.974389,-1890334.771911,-2297796.702122,-2547495.370805,-3510599.495244,-2468805.786229,-2474490.460693,-2441385.023759,-2447608.822299,25126.400605,-2543397.491383,-2525097.849977
67.0,0.26171875,-261439.771824,88194.798016,-1631459.728653,31072.8587,-1509100.021017,-1890335.308353,-2297612.16612,-2547505.5632,-3510612.906291,-2468821.879485,-2474488.851367,-2441387.705968,-2447834.127883,25410.714794,-2543401.782918,-2525102.677954
68.0,0.265625,-261549.742407,87982.367037,-1631744.579285,30878.130302,-1509111.822738,-1890353.010935,-2297813.868262,-2547512.536944,-3510619.343593,-2468821.343043,-2474487.778483,-2441398.971248,-2447808.915115,25037.887697,-2543395.882058,-2525106.969488
69.0,0.26953125,-261735.887734,88012.944223,-1632054.642684,30806.247092,-1509090.901505,-1890338.527005,-2298199.569964,-2547488.39706,-3510595.740151,-2468792.911624,-2474464.711483,-2441376.440689,-2447802.477813,24760.547252,-2543354.576034,-2525078.001628
70.0,0.2734375,-261663.468082,88193.18869,-1632183.388732,31071.249374,-1509086.60997,-1890327.798167,-2298208.689476,-2547487.860619,-3510586.620639,-2468799.348926,-2474465.247925,-2441365.711852,-2447950.535768,24924.698463,-2543361.013336,-2525073.173651
71.0,0.27734375,-261447.818452,88132.570759,-1632219.866779,31083.587537,-1509071.589598,-1890303.658283,-2297964.608427,-2547477.668223,-3510576.428244,-2468787.010764,-2474447.008901,-2441348.00927,-2448115.223421,25202.57535,-2543365.304871,-2525059.226162
72.0,0.28125,-261515.946569,87909.947385,-1632424.25113,30963.424559,-1509067.834505,-1890304.194725,-2298065.459498,-2547466.939386,-3510567.845174,-2468767.162414,-2474428.769878,-2441343.717735,-2448060.506351,25062.564023,-2543351.893825,-2525047.960883
73.0,0.28515625,-261726.768223,87878.833756,-1632695.154273,30916.754117,-1509081.245551,-1890322.97019,-2298430.239967,-2547471.230921,-3510569.990941,-2468767.698856,-2474435.743622,-2441354.446573,-2448007.935048,24743.917554,-2543344.92008,-2525054.398186
74.0,0.2890625,-261717.112269,88065.515526,-1632827.118972,31020.287397,-1509091.437947,-1890327.798167,-2298497.295201,-2547483.032642,-3510573.209592,-2468789.156531,-2474445.936018,-2441358.201666,-2448098.593724,24938.10951,-2543356.18536,-2525064.054139
75.0,0.29296875,-261488.588034,88048.885828,-1632814.244367,31046.573048,-1509081.245551,-1890309.022702,-2298226.392058,-2547477.131781,-3510573.746034,-2468789.692973,-2474437.352948,-2441347.472828,-2448292.785679,25354.92484,-2543351.893825,-2525056.543953
76.0,0.296875,-261485.369383,87820.898035,-1632929.579369,30904.952396,-1509093.583714,-1890322.97019,-2298234.975128,-2547487.324177,-3510588.229965,-2468788.083647,-2474439.498715,-2441362.493201,-2448294.395005,25090.995442,-2543353.50315,-2525066.736348
77.0,0.30078125,-261695.654594,87737.749545,-1633161.322255,30688.766323,-1509110.213412,-1890352.474493,-2298580.44369,-2547501.808107,-3510600.031686,-2468790.765857,-2474447.008901,-2441375.367805,-2448182.815097,24737.480251,-2543348.675173,-2525076.392302
78.0,0.3046875,-261746.08013,87908.874501,-1633288.458978,30940.894001,-1509095.19304,-1890338.527005,-2298713.481273,-2547487.324177,-3510580.183337,-2468782.719229,-2474437.88939,-2441355.519456,-2448232.70419,24742.84467,-2543337.946336,-2525062.444814
79.0,0.30859375,-261539.013569,87758.134336,-1633233.741907,31031.552676,-1509087.146412,-1890322.433749,-2298453.843409,-2547474.986014,-3510562.480755,-2468774.672601,-2474424.478343,-2441339.962642,-2448379.15282,25047.007209,-2543343.847197,-2525051.179534
80.0,0.3125,-261524.529639,87369.750425,-1633276.120815,30932.310931,-1509106.458319,-1890341.745656,-2298371.767804,-2547485.714851,-3510578.037569,-2468774.136159,-2474425.014785,-2441352.837247,-2448420.458844,25065.782674,-2543358.867569,-2525061.908372
81.0,0.31640625,-261734.814851,87668.548544,-1633478.359399,30830.923418,-1509128.988877,-1890373.932168,-2298674.857458,-2547496.98013,-3510592.5215,-2468777.891252,-2474435.743622,-2441374.831364,-2448315.316238,24730.506507,-2543359.940453,-2525075.319418
82.0,0.3203125,-261834.056596,87899.218547,-1633617.834284,30894.76,-1509115.041389,-1890359.984679,-2298863.684996,-2547478.204665,-3510568.381616,-2468764.480205,-2474420.72325,-2441351.764363,-2448334.091703,24710.658158,-2543335.800569,-2525053.861744
83.0,0.32421875,-261645.229059,87967.883106,-1633554.534144,30963.961001,-1509110.213412,-1890344.427865,-2298616.921737,-2547479.277549,-3510567.308732,-2468772.526833,-2474414.822389,-2441341.035526,-2448429.041914,25152.149815,-2543336.33701,-2525050.643092
84.0,0.328125,-259130.389587,85314.641632,-1624534.800593,28913.680186,-1497056.364662,-1878396.258163,-2289764.021607,-2535600.845289,-3498848.736149,-2456791.097735,-2462471.480664,-2429393.402266,-2436312.965907,23445.191794,-2531455.222542,-2513188.840531
85.0,0.33203125,-259276.838216,84921.429744,-1623485.520302,28605.226112,-1497251.629502,-1878722.95126,-2289062.892087,-2535820.786455,-3499218.344595,-2456956.858272,-2462812.12125,-2429744.771689,-2433821.729877,23101.332557,-2531810.883499,-2513544.501489
86.0,0.3359375,-262054.534203,87768.863174,-1631804.660774,30841.115813,-1509174.049994,-1890561.686821,-2297397.052931,-2547513.073386,-3510745.943874,-2468758.579345,-2474592.384647,-2441540.5919,-2445572.488972,24628.582553,-2543513.899268,-2525254.491002
87.0,0.33984375,-261859.269364,87890.099036,-1631707.028354,30937.138908,-1509166.003366,-1890502.678216,-2297240.411906,-2547517.901363,-3510691.226803,-2468774.136159,-2474545.177763,-2441479.437528,-2446601.920915,24869.981393,-2543474.20257,-2525211.575653
88.0,0.34375,-261667.223175,87731.312243,-1631744.579285,30880.812512,-1509162.784715,-1890473.710355,-2297085.380207,-2547525.411549,-3510677.279315,-2468783.792112,-2474516.209902,-2441453.151876,-2447235.995202,25034.132604,-2543459.182198,-2525183.144234
89.0,0.34765625,-261790.068363,87522.099915,-1632020.846846,30753.139347,-1509164.394041,-1890465.663727,-2297363.257094,-2547523.265782,-3510661.722501,-2468774.672601,-2474491.533576,-2441436.522178,-2447527.283135,24760.01081,-2543425.922802,-2525157.931466
90.0,0.3515625,-261957.438225,87579.499195,-1632333.056013,30757.967324,-1509154.201645,-1890446.35182,-2297747.349471,-2547503.953875,-3510628.463105,-2468758.579345,-2474463.638599,-2441411.30941,-2447727.375952,24519.684854,-2543381.934569,-2525123.062745
91.0,0.35546875,-261843.71255,87724.87494,-1632479.504642,30852.917534,-1509135.42618,-1890411.483098,-2297728.037563,-2547490.542828,-3510597.349476,-2468751.6056,-2474440.571599,-2441376.440689,-2447996.669769,24724.605647,-2543364.768429,-2525093.022
92.0,0.359375,-261636.645989,87611.685707,-1632562.653132,30828.241209,-1509128.452436,-1890393.780517,-2297539.746468,-2547488.39706,-3510589.83929,-2468750.532717,-2474423.405459,-2441363.029642,-2448236.995725,24991.753696,-2543368.523522,-2525082.293163
93.0,0.36328125,-261738.033502,87382.625029,-1632813.171484,30656.579811,-1509147.227901,-1890412.555982,-2297738.229959,-2547499.125898,-3510602.713895,-2468757.506461,-2474427.696994,-2441376.977131,-2448282.593284,24923.089137,-2543359.940453,-2525087.657581
94.0,0.3671875,-261948.318714,87387.989448,-1633096.412789,30481.699763,-1509155.810971,-1890428.649238,-2298132.514731,-2547506.636084,-3510610.760523,-2468761.261554,-2474434.134297,-2441382.34155,-2448300.832307,24482.670365,-2543342.774313,-2525089.266907
95.0,0.37109375,-261897.893178,87554.286427,-1633203.164721,30772.987696,-1509146.691459,-1890414.165308,-2298164.164801,-2547503.953875,-3510597.349476,-2468765.553089,-2474433.061413,-2441369.466945,-2448429.041914,24604.442668,-2543343.847197,-2525080.683837
96.0,0.375,-261683.852873,87489.376961,-1633213.357116,30811.075069,-1509129.525319,-1890388.95254,-2297930.276147,-2547490.006386,-3510575.891802,-2468750.532717,-2474406.775761,-2441348.00927,-2448577.099869,24883.928881,-2543341.701429,-2525064.590581
97.0,0.37890625,-261745.007246,87256.024749,-1633371.607467,30687.156998,-1509111.822738,-1890375.541493,-2298030.590776,-2547469.085153,-3510558.18922,-2468719.419088,-2474377.271459,-2441332.988898,-2448565.83459,24752.500624,-2543314.342894,-2525040.450697
98.0,0.3828125,-261961.72976,87210.963632,-1633593.6944,30631.903485,-1509118.26004,-1890385.733889,-2298399.662781,-2547462.111409,-3510559.798546,-2468709.226693,-2474375.125691,-2441332.988898,-2448529.356543,24429.026178,-2543297.176754,-2525036.159162
99.0,0.38671875,-261970.849272,87388.52589,-1633667.186936,30731.681673,-1509113.968505,-1890376.614377,-2298483.884154,-2547455.674107,-3510548.533267,-2468711.37246,-2474372.443482,-2441322.260061,-2448600.166869,24528.267923,-2543296.10387,-2525027.576092
100.0,0.390625,-261754.6632,87372.432634,-1633605.496121,30760.113091,-1509126.84311,-1890383.051679,-2298217.272546,-2547473.91313,-3510561.407871,-2468737.12167,-2474384.781645,-2441334.061782,-2448767.00029,25030.913953,-2543322.389522,-2525048.497325
101.0,0.39453125,-261758.418293,87142.835515,-1633678.988657,30642.632323,-1509147.227901,-1890407.191564,-2298209.76236,-2547493.225037,-3510587.693523,-2468748.923391,-2474397.65625,-2441356.055898,-2448755.198569,24833.503346,-2543327.753941,-2525067.27279
102.0,0.3984375,-261975.140807,87042.520886,-1633868.889078,30561.629601,-1509154.201645,-1890418.456843,-2298552.012271,-2547491.07927,-3510593.057942,-2468738.194554,-2474393.901157,-2441358.738108,-2448714.965429,24422.052434,-2543308.442033,-2525061.908372
103.0,0.40234375,-262037.368064,87208.817865,-1633951.501125,30632.439927,-1509162.248273,-1890419.529726,-2298700.070226,-2547494.834363,-3510585.547755,-2468747.850507,-2474403.55711,-2441358.738108,-2448723.548499,24414.005806,-2543314.342894,-2525066.199907
104.0,0.40625,-261835.12948,87244.75947,-1633875.32638,30536.416833,-1509155.810971,-1890409.873773,-2298447.942549,-2547498.589456,-3510578.574011,-2468750.532717,-2474397.65625,-2441351.227921,-2448859.804733,24718.704786,-2543330.972592,-2525066.199907
105.0,0.41015625,-261782.558177,87031.792048,-1633895.174729,30563.238926,-1509152.59232,-1890416.847517,-2298356.747431,-2547505.5632,-3510587.693523,-2468746.241182,-2474392.291831,-2441356.59234,-2448942.41678,24750.354856,-2543340.092103,-2525069.955
106.0,0.4140625,-261984.260319,86814.533092,-1634059.325941,30530.515972,-1509174.586436,-1890445.815378,-2298654.472668,-2547513.609828,-3510602.713895,-2468747.314065,-2474404.629994,-2441374.294922,-2448845.320802,24417.760899,-2543339.01922,-2525080.683837
107.0,0.41796875,-262102.27753,86624.09623,-1634160.177012,30589.524578,-1509196.580553,-1890464.590843,-2298863.148554,-2547521.120014,-3510603.250337,-2468760.18867,-2474415.895273,-2441378.586457,-2448865.169151,24382.892177,-2543340.092103,-2525084.43893
108.0,0.421875,-261939.199202,87010.334374,-1634081.856499,30662.480672,-1509195.507669,-1890456.544215,-2298647.498923,-2547521.656456,-3510604.859663,-2468773.063275,-2474412.676622,-2441372.149154,-2448993.378758,24835.112671,-2543341.701429,-2525082.829604
109.0,0.42578125,-261500.389755,86716.900673,-1632696.227157,30314.866342,-1507317.961135,-1888588.117193,-2297167.992254,-2545660.203178,-3508761.108966,-2466893.370973,-2472528.692785,-2439501.039922,-2447173.767945,24523.976388,-2541474.34729,-2523219.767001
110.0,0.4296875,-258350.939554,83079.288373,-1620710.506524,27543.607657,-1491817.47339,-1873262.509497,-2285839.412908,-2530404.869366,-3493757.36639,-2451477.641043,-2457229.907182,-2424185.624622,-2430544.07007,22115.352406,-2526248.517781,-2508026.124004
111.0,0.43359375,-261371.643707,85977.68378,-1629220.083859,29711.905684,-1504858.375175,-1886314.140119,-2294454.132849,-2543229.585079,-3506541.312521,-2464386.578129,-2470254.17927,-2437224.917081,-2441371.07627,23706.438983,-2539210.02617,-2520967.247601
112.0,0.4375,-262214.930322,87166.438957,-1632154.957313,30632.976369,-1509214.283134,-1890598.70131,-2297309.612907,-2547509.318293,-3510707.320059,-2468721.564856,-2474516.209902,-2441487.484156,-2446669.51259,24550.26204,-2543459.182198,-2525216.403629
113.0,0.44140625,-262008.400203,87014.089467,-1632105.068219,30581.47795,-1509206.236506,-1890554.713077,-2297120.78537,-2547514.682712,-3510674.060663,-2468726.929274,-2474474.903879,-2441448.860341,-2447467.738088,24722.459879,-2543427.532128,-2525182.07135
114.0,0.4453125,-262117.834344,86798.976278,-1632325.545827,30448.976809,-1509202.481413,-1890537.010495,-2297383.105443,-2547508.24541,-3510648.311454,-2468714.591111,-2474443.253808,-2441426.329783,-2447844.320279,24455.311829,-2543384.080337,-2525147.73907
115.0,0.44921875,-262289.495741,86847.256046,-1632608.787132,30444.685274,-1509208.918716,-1890531.109635,-2297769.343587,-2547510.391177,-3510632.218198,-2468719.419088,-2474433.597855,-2441410.772969,-2448073.380956,24201.038385,-2543356.721801,-2525126.281396
116.0,0.453125,-262185.426019,86996.386885,-1632747.189134,30540.708368,-1509194.971227,-1890501.06889,-2297759.687633,-2547499.125898,-3510599.495244,-2468717.273321,-2474410.530855,-2441378.586457,-2448372.179076,24394.693899,-2543343.847197,-2525098.386419
117.0,0.45703125,-261977.286575,86893.926489,-1632829.26474,30520.323577,-1509189.606808,-1890483.366309,-2297569.250771,-2547499.125898,-3510592.5215,-2468717.809763,-2474395.510482,-2441365.17541,-2448630.207614,24633.946971,-2543348.138731,-2525084.975372
118.0,0.4609375,-262062.044389,86661.64716,-1633067.98137,30387.285994,-1509177.268645,-1890473.173913,-2297758.61475,-2547483.032642,-3510579.110453,-2468693.669879,-2474371.370598,-2441352.837247,-2448667.758544,24439.218573,-2543320.780196,-2525063.517697
119.0,0.46484375,-262266.428741,86654.673416,-1633347.467583,30339.542668,-1509170.831343,-1890467.809494,-2298150.753754,-2547468.012269,-3510566.235848,-2468678.649506,-2474353.668017,-2441337.280433,-2448655.420381,24295.988595,-2543282.692824,-2525045.815116
120.0,0.46875,-262226.732043,86819.897511,-1633462.266143,30288.58069,-1509180.487297,-1890469.41882,-2298193.669104,-2547480.350432,-3510568.381616,-2468700.643623,-2474364.396854,-2441338.353317,-2448805.624104,24345.341247,-2543283.229266,-2525051.179534
121.0,0.47265625,-262020.201924,86763.034673,-1633467.630561,30427.519134,-1509151.519436,-1890439.378076,-2297953.343147,-2547461.574967,-3510543.168848,-2468681.868158,-2474335.965435,-2441312.604107,-2448979.967711,24543.288296,-2543274.109754,-2525027.576092
122.0,0.4765625,-262074.918994,86530.218903,-1633611.396982,30370.119854,-1509143.472808,-1890435.622982,-2298038.637404,-2547450.309688,-3510535.658662,-2468659.337599,-2474317.18997,-2441304.557479,-2448947.781199,24418.297341,-2543258.55294,-2525014.165046
123.0,0.48046875,-262292.714392,86474.965391,-1633843.67631,30306.819714,-1509167.612692,-1890465.127285,-2298410.92806,-2547466.939386,-3510553.361243,-2468668.457111,-2474332.746784,-2441323.869386,-2448850.685221,24083.021174,-2543258.55294,-2525029.185418
124.0,0.484375,-262308.807648,86649.308997,-1633942.381614,30398.551273,-1509184.778832,-1890475.856122,-2298505.341829,-2547479.813991,-3510558.18922,-2468690.451227,-2474349.376482,-2441330.306689,-2448994.451641,24149.539965,-2543276.791963,-2525040.450697
125.0,0.48828125,-262085.11139,86641.262369,-1633893.565404,30430.201343,-1509170.294901,-1890450.106913,-2298245.167523,-2547469.085153,-3510544.778174,-2468687.769018,-2474334.356109,-2441315.286316,-2449148.946899,24638.238506,-2543278.937731,-2525028.648976
126.0,0.4921875,-262065.799483,86412.201692,-1633968.130823,30320.767202,-1509171.904227,-1890457.080657,-2298230.683593,-2547469.085153,-3510551.751918,-2468681.868158,-2474328.991691,-2441318.504968,-2449178.451202,24518.61197,-2543264.990242,-2525031.331185
127.0,0.49609375,-262281.985555,86304.913319,-1634155.885477,30233.327178,-1509202.481413,-1890494.095146,-2298568.641969,-2547493.225037,-3510581.25622,-2468695.815646,-2474353.668017,-2441346.936386,-2449102.812898,24058.88129,-2543269.818219,-2525052.252418
128.0,0.5,-262357.087416,86462.627228,-1634250.835687,30284.825597,-1509192.82546,-1890480.684099,-2298727.428761,-2547481.423316,-3510559.798546,-2468688.30546,-2474341.866296,-2441328.697363,-2449109.250201,24032.059196,-2543254.797847,-2525035.086278
129.0,0.50390625,-262166.650554,86504.469693,-1634177.343151,30194.166922,-1509194.434785,-1890476.392564,-2298483.884154,-2547490.542828,-3510560.87143,-2468698.497855,-2474344.012063,-2441327.624479,-2449214.929249,24332.466642,-2543276.791963,-2525040.987139
130.0,0.5078125,-262113.006367,86295.257365,-1634190.754198,30257.467062,-1509176.732204,-1890465.663727,-2298386.251734,-2547477.668223,-3510554.970569,-2468678.113065,-2474322.554388,-2441317.968526,-2449262.672575,24374.309108,-2543268.745335,-2525028.112534
131.0,0.51171875,-262314.172067,86142.371433,-1634347.395223,30191.484713,-1509179.414413,-1890477.465448,-2298681.294761,-2547473.91313,-3510554.434127,-2468665.23846,-2474318.262853,-2441320.650735,-2449187.034272,24042.251592,-2543253.188521,-2525025.966767
132.0,0.515625,-262439.163022,86274.872574,-1634446.100527,30246.738225,-1509203.017855,-1890499.996006,-2298891.579973,-2547489.469944,-3510564.626523,-2468685.086809,-2474340.25697,-2441334.061782,-2449181.133411,23932.817451,-2543266.063126,-2525042.060023
133.0,0.51953125,-262263.21009,86325.834552,-1634370.998665,30321.840086,-1509194.971227,-1890483.366309,-2298677.003226,-2547483.032642,-3510552.824802,-2468684.550367,-2474333.283226,-2441320.650735,-2449268.573435,24325.492898,-2543271.427545,-2525033.476953
134.0,0.5234375,-262165.57767,85824.797848,-1634333.984176,30252.639085,-1509183.169506,-1890470.491704,-2298492.467224,-2547460.502083,-3510535.12222,-2468659.337599,-2474301.096714,-2441299.19306,-2449325.972715,24505.200923,-2543241.923242,-2525009.337069
135.0,0.52734375,-260684.998117,84115.157618,-1628180.995963,28829.995254,-1500844.180685,-1882202.849651,-2292702.113712,-2539224.5101,-3502399.981308,-2460345.561546,-2466020.580056,-2433016.530635,-2440812.103845,22996.189951,-2534983.937142,-2516780.855272
136.0,0.53125,-259437.234335,82969.31779,-1622350.409311,27641.776519,-1494512.557329,-1876023.575786,-2287480.388579,-2533006.612421,-3496378.957794,-2454037.541632,-2459872.419819,-2426862.469538,-2432174.316904,21953.346962,-2528878.692255,-2510683.657012
137.0,0.53515625,-262492.807209,86323.688784,-1632250.443965,30207.577969,-1508908.51127,-1890343.354981,-2297126.686231,-2547157.94887,-3510373.116776,-2468318.697014,-2474148.747223,-2441154.890198,-2446077.817211,24111.989035,-2543098.156822,-2524878.445253
138.0,0.5390625,-262364.597602,86266.825946,-1632331.446687,30235.472946,-1509210.528041,-1890601.383519,-2297115.420951,-2547468.548711,-3510631.681756,-2468636.807041,-2474404.629994,-2441408.090759,-2447382.443831,24329.247991,-2543362.622662,-2525142.911094
139.0,0.54296875,-262468.130883,86044.739013,-1632510.618271,30101.362479,-1509222.329762,-1890595.482659,-2297347.70028,-2547480.350432,-3510626.853779,-2468644.317227,-2474383.172319,-2441394.679713,-2447856.122,24066.927918,-2543330.972592,-2525120.916977
140.0,0.546875,-262644.083815,86082.289944,-1632779.375646,30090.633642,-1509242.714553,-1890598.70131,-2297730.719773,-2547495.907247,-3510614.515616,-2468660.946925,-2474383.708761,-2441388.778852,-2448176.914236,23801.389194,-2543311.660685,-2525107.50593
141.0,0.55078125,-262549.133605,86233.56655,-1632913.486113,30187.729619,-1509245.396763,-1890581.53517,-2297738.229959,-2547501.808107,-3510599.495244,-2468678.649506,-2474377.807901,-2441375.904247,-2448554.56931,23984.852312,-2543309.514917,-2525097.313535
142.0,0.5546875,-262351.722998,86131.642596,-1632999.853253,30168.417712,-1509236.277251,-1890560.613937,-2297548.86598,-2547499.66234,-3510586.084197,-2468674.357971,-2474356.886668,-2441357.665224,-2448804.55122,24227.324036,-2543310.587801,-2525081.220279
143.0,0.55859375,-262441.308789,85896.144616,-1633240.715652,30034.307246,-1509220.183995,-1890543.98424,-2297729.646889,-2547476.058898,-3510565.162964,-2468644.317227,-2474326.845923,-2441335.671107,-2448909.157385,24036.887173,-2543276.791963,-2525051.179534
144.0,0.5625,-262656.95842,85878.442035,-1633525.566283,29899.123895,-1509220.183995,-1890543.98424,-2298126.61387,-2547469.085153,-3510555.507011,-2468636.807041,-2474319.335737,-2441326.015154,-2448926.859966,23825.529078,-2543248.896986,-2525036.695604
145.0,0.56640625,-262632.282094,86044.739013,-1633659.140308,29924.336663,-1509231.985716,-1890553.640193,-2298179.185173,-2547489.469944,-3510567.845174,-2468671.13932,-2474333.819668,-2441336.207549,-2449042.731409,24056.735522,-2543252.652079,-2525050.106651
146.0,0.5703125,-262421.996882,85988.412617,-1633676.842889,30131.403223,-1509224.47553,-1890539.692705,-2297939.395659,-2547487.860619,-3510558.18922,-2468672.748646,-2474324.163714,-2441327.624479,-2449182.742737,24138.811128,-2543256.943614,-2525044.20579
147.0,0.57421875,-262469.740208,85751.841754,-1633832.947473,30020.359757,-1509207.30939,-1890527.890984,-2298010.742427,-2547468.012269,-3510536.731546,-2468638.416366,-2474292.513644,-2441309.921898,-2449198.299551,24015.96594,-2543228.512195,-2525017.920139
148.0,0.578125,-262693.436467,85688.005172,-1634063.617475,29953.840965,-1509226.621297,-1890551.494426,-2298387.86106,-2547478.741107,-3510556.579895,-2468644.317227,-2474306.461132,-2441323.869386,-2449142.509597,23675.325355,-2543224.22066,-2525028.112534
149.0,0.58203125,-262721.867886,85859.130127,-1634165.54143,30042.353874,-1509234.667925,-1890552.030868,-2298503.732503,-2547483.569084,-3510550.142592,-2468657.728274,-2474314.50776,-2441319.577851,-2449232.63183,23717.167821,-2543231.194405,-2525030.258302
150.0,0.5859375,-262506.218255,85852.692825,-1634126.917616,30076.149711,-1509243.787437,-1890552.030868,-2298253.214151,-2547499.125898,-3510555.507011,-2468673.82153,-2474321.481505,-2441327.088037,-2449374.252483,24017.038824,-2543261.235149,-2525043.132906
151.0,0.58984375,-262481.541929,85625.241473,-1634194.509291,29965.106245,-1509242.178111,-1890555.249519,-2298231.756476,-2547499.125898,-3510564.626523,-2468665.23846,-2474316.117086,-2441330.306689,-2449387.127088,24076.04743,-2543259.625823,-2525040.450697
152.0,0.59375,-262699.337327,85508.833588,-1634394.602107,29873.374685,-1509264.70867,-1890583.144496,-2298570.787736,-2547510.391177,-3510579.646895,-2468671.675762,-2474325.236598,-2441347.472828,-2449289.494668,23768.66624,-2543245.141893,-2525052.252418
153.0,0.59765625,-262786.24091,85661.183078,-1634502.963364,29942.039244,-1509260.953577,-1890577.780077,-2298741.37625,-2547501.808107,-3510565.699406,-2468670.066437,-2474320.945063,-2441336.743991,-2449294.322645,23601.296377,-2543234.413056,-2525044.20579
154.0,0.6015625,-262597.413373,85705.707753,-1634434.298806,29998.36564,-1509245.396763,-1890553.103751,-2298499.97741,-2547487.860619,-3510545.851057,-2468660.410483,-2474303.242481,-2441316.3592,-2449439.698391,23895.802962,-2543234.413056,-2525028.648976
155.0,0.60546875,-262540.550535,85494.349658,-1634439.126782,29807.928778,-1509237.350135,-1890547.739333,-2298383.569525,-2547482.4962,-3510541.02308,-2468644.317227,-2474288.222109,-2441309.385456,-2449472.421345,23949.983591,-2543231.730846,-2525019.529464
156.0,0.609375,-262743.862002,85335.026423,-1634586.111854,29676.50052,-1509251.834065,-1890574.561426,-2298667.347272,-2547497.516572,-3510558.18922,-2468647.535878,-2474301.096714,-2441331.379572,-2449388.736414,23616.31675,-2543233.876614,-2525032.404069
157.0,0.61328125,-262877.972469,85460.55382,-1634690.718018,29875.520453,-1509246.469646,-1890572.9521,-2298889.970647,-2547488.39706,-3510543.168848,-2468641.635018,-2474296.268737,-2441316.895642,-2449359.232111,23511.174144,-2543220.465567,-2525022.211674
158.0,0.6171875,-262713.821258,85551.212496,-1634619.907691,29956.523175,-1509245.396763,-1890563.832589,-2298686.65918,-2547493.761479,-3510544.778174,-2468656.118948,-2474297.341621,-2441312.604107,-2449447.745019,23951.592916,-2543231.194405,-2525027.03965
159.0,0.62109375,-262580.783675,85373.113796,-1634579.13811,29888.9315,-1509225.011972,-1890540.765588,-2298496.222317,-2547474.449572,-3510532.440011,-2468631.442622,-2474271.592411,-2441298.120177,-2449504.607857,23962.321754,-2543207.05452,-2525007.727743
160.0,0.625,-262559.326,84979.901907,-1633919.314613,29611.591054,-1508147.300261,-1889479.147134,-2297964.608427,-2546397.810745,-3509471.89444,-2467541.92919,-2473189.589165,-2440223.627117,-2448405.974913,23478.987632,-2542118.077531,-2523931.625358
161.0,0.62890625,-259413.630892,81615.87496,-1621872.97605,27031.842116,-1492542.742794,-1874032.840017,-2286677.335105,-2531026.069048,-3494329.21342,-2452028.566841,-2457768.494817,-2424776.783559,-2431836.89497,21290.304815,-2526764.038415,-2508607.090546
162.0,0.6328125,-261655.421454,83753.5958,-1628548.995083,28827.313045,-1503429.830483,-1884945.140474,-2293295.954859,-2541747.932642,-3505037.129526,-2462814.267017,-2468670.602878,-2435691.229783,-2440407.626677,22950.055951,-2537644.15236,-2519453.408653
163.0,0.63671875,-262836.666445,85336.635749,-1632525.638643,29868.546709,-1509306.014694,-1890747.295707,-2297090.744625,-2547516.828479,-3510690.153919,-2468641.098576,-2474438.425832,-2441469.781574,-2447101.348293,23890.974985,-2543392.663406,-2525202.992583
164.0,0.640625,-262944.491261,85192.869329,-1632636.145668,29732.826916,-1509315.134205,-1890728.520242,-2297284.936581,-2547530.239526,-3510662.795384,-2468646.999436,-2474405.702878,-2441444.032364,-2447768.681975,23632.410006,-2543349.211615,-2525174.024722
165.0,0.64453125,-263117.225542,85219.691422,-1632884.518252,29716.73366,-1509317.279973,-1890707.062567,-2297675.46626,-2547528.093759,-3510635.436849,-2468646.999436,-2474379.417226,-2441414.528062,-2448146.873492,23353.460235,-2543301.468289,-2525137.546675
166.0,0.6484375,-263028.176192,85379.014656,-1633020.238044,29814.36608,-1509283.484135,-1890650.736171,-2297695.314609,-2547495.907247,-3510581.25622,-2468626.078203,-2474333.283226,-2441356.055898,-2448500.925124,23527.803842,-2543258.55294,-2525081.220279
167.0,0.65234375,-262810.917236,85288.892423,-1633103.922976,29800.418592,-1509298.504507,-1890653.954822,-2297497.904002,-2547517.901363,-3510591.985058,-2468653.436739,-2474341.329854,-2441365.17541,-2448792.749499,23789.051031,-2543284.302149,-2525089.266907
168.0,0.65625,-262880.654678,85049.63935,-1633357.659979,29669.526776,-1509301.186717,-1890655.027706,-2297670.638284,-2547516.828479,-3510595.203709,-2468647.535878,-2474328.991691,-2441362.493201,-2448865.705593,23741.844146,-2543265.526684,-2525080.683837
169.0,0.66015625,-263093.6221,85024.963024,-1633661.822517,29573.503682,-1509310.84267,-1890666.829427,-2298075.115451,-2547520.583572,-3510594.667267,-2468649.681646,-2474330.064574,-2441364.638968,-2448901.110757,23330.393235,-2543239.241033,-2525075.85586
170.0,0.6640625,-263071.627983,85195.551538,-1633805.052496,29557.410426,-1509295.285856,-1890643.225985,-2298155.581731,-2547509.854735,-3510563.553639,-2468644.317227,-2474315.044202,-2441337.816875,-2449032.002572,23388.865398,-2543223.684218,-2525053.861744
171.0,0.66796875,-262850.613934,85155.318398,-1633827.046612,29747.847289,-1509266.317995,-1890609.430147,-2297924.375287,-2547491.07927,-3510542.095964,-2468628.223971,-2474286.076341,-2441309.385456,-2449175.768992,23678.544006,-2543217.783358,-2525030.258302
172.0,0.671875,-262881.727562,84924.648395,-1633974.568126,29650.751311,-1509267.927321,-1890612.112357,-2297988.211869,-2547488.39706,-3510543.168848,-2468614.276482,-2474274.27462,-2441309.921898,-2449152.16555,23583.593796,-2543212.418939,-2525024.357441
173.0,0.67578125,-263106.496704,84851.692301,-1634221.331384,29579.404542,-1509286.702786,-1890635.715799,-2298359.429641,-2547496.98013,-3510549.069708,-2468617.495134,-2474283.394132,-2441321.187177,-2449077.063689,23256.364257,-2543204.908753,-2525030.258302
174.0,0.6796875,-263138.683216,85025.499466,-1634345.785897,29669.526776,-1509313.52488,-1890655.027706,-2298483.884154,-2547517.901363,-3510571.063825,-2468656.65539,-2474313.434877,-2441340.499084,-2449185.424946,23462.894376,-2543225.293544,-2525055.471069
175.0,0.68359375,-262927.325121,85034.082536,-1634313.599385,29709.223474,-1509308.160461,-1890639.470892,-2298240.875988,-2547516.828479,-3510565.699406,-2468659.874041,-2474305.388249,-2441329.770247,-2449318.998971,23660.841425,-2543224.757102,-2525049.570209
176.0,0.6875,-262905.867446,84811.459161,-1634392.45634,29600.862217,-1509301.186717,-1890634.106473,-2298204.934383,-2547509.318293,-3510559.262104,-2468642.171459,-2474287.685667,-2441324.94227,-2449317.926087,23566.964098,-2543216.710474,-2525039.377813
177.0,0.69140625,-263120.980635,84689.150416,-1634595.231366,29505.375565,-1509288.848554,-1890629.814938,-2298536.991899,-2547488.39706,-3510545.314615,-2468612.667157,-2474265.69155,-2441309.921898,-2449233.704714,23223.104861,-2543180.232427,-2525017.920139
178.0,0.6953125,-263211.63931,84842.572789,-1634697.691762,29575.113007,-1509282.947693,-1890621.76831,-2298718.845692,-2547478.741107,-3510529.757801,-2468609.448506,-2474261.400016,-2441296.510851,-2449251.943738,23170.533558,-2543168.430706,-2525006.654859
179.0,0.69921875,-263014.765145,84895.144092,-1634629.563645,29497.328937,-1509289.921437,-1890622.304752,-2298484.957038,-2547493.225037,-3510534.049336,-2468628.223971,-2474272.665295,-2441304.021037,-2449350.649041,23467.185911,-2543196.862125,-2525019.529464
180.0,0.703125,-262921.42426,84693.978392,-1634626.881436,29446.903401,-1509278.119716,-1890615.86745,-2298356.21099,-2547490.542828,-3510534.049336,-2468617.495134,-2474260.863574,-2441301.87527,-2449368.888064,23620.071843,-2543198.471451,-2525015.237929
181.0,0.70703125,-263110.788239,84519.098344,-1634786.20467,29478.01703,-1509281.338368,-1890629.814938,-2298637.84297,-2547488.933502,-3510538.877313,-2468609.984947,-2474257.644922,-2441304.557479,-2449284.13025,23371.699258,-2543172.722241,-2525013.092162
182.0,0.7109375,-263245.97159,84371.040388,-1634897.248137,29524.687472,-1509263.099344,-1890612.112357,-2298879.24181,-2547458.356316,-3510505.081475,-2468582.626412,-2474230.286387,-2441271.834525,-2449235.31404,23092.749487,-2543130.879775,-2524979.832766
183.0,0.71484375,-263105.423821,84485.302506,-1634824.828485,29602.471543,-1509280.265484,-1890618.549659,-2298683.97697,-2547469.621595,-3510508.836568,-2468599.792552,-2474239.405899,-2441272.907409,-2449308.806575,23357.75177,-2543158.238311,-2524988.952278
184.0,0.71875,-263003.499866,84700.415695,-1634777.085158,29540.244286,-1509290.994321,-1890628.742055,-2298483.347712,-2547478.204665,-3510520.63829,-2468603.011203,-2474241.015225,-2441286.318455,-2449388.736414,23502.591074,-2543176.477334,-2524999.144673
185.0,0.72265625,-263167.651077,84533.582274,-1634890.810834,29417.93554,-1509292.603647,-1890639.470892,-2298703.825319,-2547472.840246,-3510519.565406,-2468585.308622,-2474234.577922,-2441290.073549,-2449295.395529,23217.740442,-2543160.384078,-2524993.780255
186.0,0.7265625,-262055.070645,83311.567701,-1630156.711359,28446.439319,-1502822.57829,-1884220.943954,-2294357.036872,-2541082.208286,-3504198.134446,-2462143.178242,-2467810.686566,-2434854.380471,-2442709.498728,22222.640779,-2536755.804629,-2518606.366945
187.0,0.73046875,-259830.982665,81136.295931,-1621722.235885,26794.198369,-1493137.120382,-1874697.491491,-2286441.837125,-2531571.093985,-3494906.424869,-2452526.921335,-2458334.440986,-2425357.213659,-2431012.920262,21287.086163,-2527352.515143,-2509202.541018
188.0,0.734375,-263020.129564,84456.334645,-1632197.33622,29356.781168,-1508506.17987,-1889998.422861,-2296543.037479,-2546683.197818,-3509887.636887,-2467760.26103,-2473591.920566,-2440647.416192,-2445517.23546,23434.999399,-2542552.595443,-2524377.944991
189.0,0.73828125,-263291.569148,84470.818576,-1632801.369763,29404.524494,-1509326.935926,-1890778.945777,-2297268.843325,-2547490.542828,-3510637.046175,-2468574.043342,-2474350.985807,-2441412.918736,-2447184.496782,23269.775304,-2543295.567429,-2525144.520419
190.0,0.7421875,-263462.157662,84491.203367,-1632999.853253,29384.139703,-1509326.935926,-1890754.805893,-2297639.524655,-2547492.152154,-3510602.713895,-2468576.725552,-2474325.236598,-2441378.050015,-2447748.833626,22984.924672,-2543245.141893,-2525105.896605
191.0,0.74609375,-263377.936289,84649.990159,-1633114.651813,29480.699239,-1509353.221578,-1890755.342335,-2297667.956074,-2547521.120014,-3510601.10457,-2468619.104459,-2474336.501877,-2441380.195782,-2448201.05412,23147.466558,-2543258.55294,-2525109.115256
192.0,0.75,-263167.114635,84566.84167,-1633187.607907,29470.506843,-1509328.00881,-1890712.963428,-2297475.909886,-2547499.125898,-3510570.527383,-2468601.938319,-2474295.732295,-2441338.353317,-2448549.204892,23436.608724,-2543236.558823,-2525068.882116
193.0,0.75390625,-263244.362264,84331.34369,-1633431.152514,29339.615028,-1509314.597763,-1890697.943055,-2297641.670423,-2547483.032642,-3510551.751918,-2468578.871319,-2474264.082225,-2441319.041409,-2448659.711916,23378.673003,-2543194.179916,-2525038.841371
194.0,0.7578125,-263453.574592,84300.766504,-1633737.997262,29292.944585,-1509317.816415,-1890699.552381,-2298042.928939,-2547478.741107,-3510539.413755,-2468572.434017,-2474255.499155,-2441309.385456,-2448713.356103,22932.353369,-2543160.92052,-2525026.503208
195.0,0.76171875,-263434.799127,84475.110111,-1633897.856939,29390.577005,-1509307.624019,-1890675.412497,-2298130.368964,-2547461.574967,-3510510.445894,-2468568.142482,-2474238.333015,-2441282.026921,-2448845.320802,23016.574742,-2543144.290822,-2525002.899766
196.0,0.765625,-263212.712194,84448.288017,-1633930.579892,29409.352471,-1509292.603647,-1890649.663287,-2297907.745589,-2547454.064781,-3510496.498406,-2468562.778063,-2474221.166876,-2441266.470106,-2449000.352502,23311.617769,-2543149.655241,-2524987.342952
197.0,0.76953125,-263230.414776,84222.445991,-1634089.903127,29258.612306,-1509306.014694,-1890664.68366,-2297959.78045,-2547466.402944,-3510508.836568,-2468562.778063,-2474223.849085,-2441277.735386,-2449032.539014,23228.46928,-2543156.092543,-2524993.780255
198.0,0.7734375,-263444.455081,84141.443269,-1634342.030804,29064.956792,-1509289.921437,-1890660.392125,-2298335.289757,-2547449.236804,-3510490.597545,-2468537.565295,-2474207.219387,-2441262.715013,-2448957.437153,22887.828694,-2543121.223822,-2524972.32258
199.0,0.77734375,-263485.761104,84313.104667,-1634459.511573,29312.256493,-1509285.093461,-1890652.881939,-2298479.592619,-2547444.945269,-3510480.941591,-2468542.929714,-2474207.755829,-2441255.204827,-2448997.133851,22928.061834,-2543118.541612,-2524965.885277
200.0,0.78125,-263270.111474,84332.953016,-1634417.669108,29383.066819,-1509281.874809,-1890639.470892,-2298241.41243,-2547442.26306,-3510478.795824,-2468550.976342,-2474200.782085,-2441245.548874,-2449097.984922,23422.661236,-2543123.369589,-2524962.130184
201.0,0.78515625,-263245.97159,84117.303385,-1634480.969248,29282.75219,-1509298.504507,-1890659.319241,-2298200.106406,-2547458.356316,-3510502.935708,-2468560.095854,-2474209.365154,-2441264.324339,-2449133.926527,23288.014327,-2543131.952659,-2524977.686999
202.0,0.7890625,-263457.866127,83994.99464,-1634677.306971,29187.80198,-1509315.670647,-1890683.995567,-2298530.554596,-2547468.012269,-3510512.05522,-2468560.632296,-2474216.875341,-2441279.344711,-2449095.302712,22881.391392,-2543123.906031,-2524986.80651
203.0,0.79296875,-263549.597686,84148.417014,-1634795.324182,29258.075864,-1509299.577391,-1890666.292985,-2298729.038087,-2547445.481711,-3510484.160243,-2468545.611923,-2474199.709201,-2441254.131943,-2449073.845038,22819.700577,-2543098.693263,-2524963.203068
204.0,0.796875,-263354.869289,84217.081573,-1634733.633367,29325.667539,-1509280.265484,-1890639.470892,-2298509.096922,-2547430.997781,-3510465.921219,-2468536.492412,-2474183.615945,-2441232.137827,-2449163.967271,23115.816488,-2543101.375473,-2524949.792021
205.0,0.80078125,-263251.87245,84026.108268,-1634730.951158,29193.70284,-1509311.915554,-1890667.365869,-2298369.085594,-2547465.33006,-3510498.644173,-2468562.778063,-2474208.828713,-2441264.324339,-2449194.544458,23239.198117,-2543139.462845,-2524983.051417
206.0,0.8046875,-263431.580476,83859.811289,-1634882.227764,28956.595535,-1509330.691019,-1890700.088823,-2298644.816714,-2547486.787735,-3510525.466266,-2468574.579784,-2474226.531294,-2441291.146432,-2449148.946899,23069.682487,-2543136.244194,-2525001.826883
207.0,0.80859375,-263569.982477,83979.437826,-1634995.416998,29186.729096,-1509321.571508,-1890693.115079,-2298895.335066,-2547474.986014,-3510509.909452,-2468569.215366,-2474217.948224,-2441276.662502,-2449128.562108,22764.447065,-2543106.20345,-2524986.80651
208.0,0.8125,-263420.851638,83955.834383,-1634932.116858,29297.23612,-1509341.956299,-1890708.671893,-2298713.481273,-2547494.834363,-3510520.63829,-2468596.573901,-2474236.187248,-2441291.682874,-2449199.908876,23004.773021,-2543142.681496,-2525006.654859
209.0,0.81640625,-263302.297986,83577.642867,-1634884.909974,29240.373282,-1509315.134205,-1890677.558264,-2298506.414712,-2547459.965641,-3510488.451778,-2468554.731435,-2474194.344782,-2441254.668385,-2449217.611458,23165.16914,-2543120.150938,-2524972.32258
210.0,0.8203125,-263459.475453,83781.490777,-1634989.516138,29116.455211,-1509314.061322,-1890685.068451,-2298716.699924,-2547448.16392,-3510487.915336,-2468537.028854,-2474182.543061,-2441252.522618,-2449186.49783,22887.828694,-2543101.911915,-2524961.593743
211.0,0.82421875,-263636.501269,83947.251314,-1635110.215558,29127.184049,-1509331.763903,-1890705.989683,-2299004.232765,-2547457.283432,-3510494.88908,-2468547.221249,-2474198.099875,-2441263.787897,-2449137.68162,22666.278203,-2543105.130566,-2524973.395464
212.0,0.828125,-261880.190597,82412.491132,-1628913.239111,27961.495872,-1501162.827154,-1882599.28019,-2293059.383995,-2539405.29101,-3502524.435821,-2460435.683779,-2466101.582778,-2433147.958892,-2440910.809149,21886.291729,-2535054.747469,-2516924.08525
213.0,0.83203125,-260149.629134,80578.932831,-1622394.933986,26637.557344,-1494273.840698,-1875872.299179,-2286946.628922,-2532657.388766,-3495988.428114,-2453584.784697,-2459404.106069,-2426445.117765,-2431776.277039,21311.762489,-2528431.299738,-2510294.736659
214.0,0.8359375,-263539.941733,83708.534683,-1632672.087273,29024.18721,-1509008.825899,-1890529.500309,-2297008.66902,-2547127.371684,-3510313.571729,-2468174.394151,-2474008.735896,-2441088.907848,-2445837.491255,22937.717788,-2542948.489541,-2524811.39002
215.0,0.83984375,-263794.75162,83834.598522,-1633021.310928,29089.096676,-1509377.361462,-1890856.729848,-2297593.390655,-2547490.542828,-3510613.442733,-2468545.611923,-2474325.236598,-2441400.580573,-2447050.922757,22659.304459,-2543238.704591,-2525130.036489
216.0,0.84375,-263701.947177,83998.213291,-1633091.048371,29187.265538,-1509346.247834,-1890791.820382,-2297613.239004,-2547464.793618,-3510552.824802,-2468537.565295,-2474272.665295,-2441335.671107,-2447648.518997,22811.653949,-2543183.451078,-2525069.418558
217.0,0.84765625,-263470.20429,83925.793639,-1633144.156116,29182.974003,-1509365.023299,-1890785.38308,-2297408.318211,-2547489.469944,-3510559.262104,-2468567.60604,-2474273.201737,-2441334.598224,-2448129.707352,23076.656231,-2543201.15366,-2525067.27279
218.0,0.8515625,-263526.530686,83695.660078,-1633387.164281,29057.446606,-1509371.460601,-1890786.455963,-2297560.131259,-2547494.834363,-3510557.116336,-2468561.705179,-2474261.400016,-2441329.770247,-2448341.601889,22923.770299,-2543186.133288,-2525052.252418
219.0,0.85546875,-263736.279456,83661.86424,-1633706.347192,29006.484628,-1509356.440229,-1890768.21694,-2297978.555915,-2547471.230921,-3510523.320499,-2468537.028854,-2474232.968597,-2441300.802386,-2448454.791123,22599.759412,-2543138.926403,-2525016.310813
220.0,0.859375,-263728.76927,83839.426498,-1633888.200985,29105.189932,-1509350.002927,-1890750.514358,-2298092.281591,-2547462.647851,-3510502.935708,-2468541.320388,-2474221.703317,-2441278.271827,-2448583.000729,22685.59011,-2543128.734008,-2525000.217557
221.0,0.86328125,-263498.635709,83815.823056,-1633937.017195,29126.647607,-1509330.154578,-1890718.327846,-2297871.267542,-2547449.236804,-3510479.868708,-2468530.055109,-2474197.026991,-2441255.204827,-2448736.423103,23065.927394,-2543121.760264,-2524977.150557
222.0,0.8671875,-263492.734849,83587.835263,-1634103.314174,28998.974442,-1509352.148694,-1890739.249079,-2297917.937984,-2547469.085153,-3510508.836568,-2468549.367016,-2474210.97448,-2441279.344711,-2448816.352942,23087.385069,-2543126.051799,-2524994.853138
223.0,0.87109375,-263704.629386,83505.759657,-1634358.660502,28736.654369,-1509388.626741,-1890783.773754,-2298293.447291,-2547503.417433,-3510542.632406,-2468573.5069,-2474242.088108,-2441313.140549,-2448803.478337,22577.765295,-2543136.244194,-2525024.893883
224.0,0.875,-263752.909154,83675.811729,-1634508.327783,28961.959954,-1509387.017415,-1890782.70087,-2298455.989177,-2547506.636084,-3510535.658662,-2468584.235738,-2474245.30676,-2441307.239688,-2448851.221663,22577.765295,-2543137.85352,-2525022.748115
225.0,0.87890625,-263547.988361,83706.925357,-1634498.67183,29116.455211,-1509373.069927,-1890760.170312,-2298229.610709,-2547496.98013,-3510516.883196,-2468578.334877,-2474228.677062,-2441289.000665,-2448950.463408,22886.219369,-2543141.608613,-2525008.264185
226.0,0.8828125,-262722.404328,82688.222252,-1631741.897075,28419.617226,-1505388.379739,-1886818.395474,-2295499.658048,-2543582.563827,-3506662.548383,-2464623.148992,-2470275.636944,-2437339.179199,-2445144.944804,22460.284526,-2539219.145682,-2521089.019905
227.0,0.88671875,-250606.328321,69728.323189,-1597760.987015,20055.415637,-1460355.694336,-1842073.779353,-2265385.957406,-2501822.173813,-3468083.795081,-2422298.958576,-2428283.504043,-2395207.571412,-2401879.298911,15701.117003,-2497603.058529,-2479499.218404
228.0,0.890625,-257062.40619,75713.94154,-1612706.257427,24359.288735,-1486618.815257,-1863843.663197,-2280700.836265,-2527568.701216,-3493829.2496,-2448211.782958,-2454632.992105,-2421606.948567,-2417152.871746,19126.834765,-2523887.100683,-2505722.106185
229.0,0.89453125,-264142.902391,83748.767823,-1627377.942488,29156.151909,-1509491.623579,-1888064.549931,-2293434.893302,-2547571.009108,-3511030.258063,-2468569.215366,-2474786.576603,-2441867.284997,-2438350.90856,22980.633137,-2543746.178597,-2525638.583379
230.0,0.8984375,-263893.993365,83607.683612,-1627388.134883,29073.539862,-1509454.072649,-1890552.030868,-2293410.753418,-2547538.286154,-3510840.894084,-2468547.757691,-2474596.13974,-2441667.728623,-2442137.651698,23035.350208,-2543540.18492,-2525456.193144
231.0,0.90234375,-263983.579157,83419.392517,-1627970.174309,28946.939581,-1509452.999765,-1891055.213339,-2293941.830867,-2547542.041247,-3510759.891362,-2468556.340761,-2474506.017507,-2441571.705529,-2444158.428211,22697.391832,-2543416.80329,-2525346.222561
232.0,0.90625,-264071.019181,83521.852913,-1628687.933527,28979.662535,-1509442.80737,-1891012.297989,-2294509.386362,-2547537.749712,-3510691.226803,-2468564.387389,-2474441.644483,-2441497.676551,-2445414.775063,22518.220248,-2543330.972592,-2525258.246095
233.0,0.91015625,-263876.290783,83637.187915,-1629288.211976,29067.102559,-1509414.912392,-1890937.73257,-2294671.391806,-2547517.901363,-3510623.098686,-2468559.559412,-2474378.880784,-2441423.111132,-2446307.950772,22768.202158,-2543274.109754,-2525179.389141
234.0,0.9140625,-263681.562386,83484.301982,-1629877.225146,29013.458373,-1509395.600485,-1890888.91636,-2294771.706435,-2547505.5632,-3510586.084197,-2468554.731435,-2474334.892551,-2441380.195782,-2446964.555617,22962.930556,-2543241.923242,-2525130.572931
235.0,0.91796875,-263802.798248,83280.454073,-1630584.791968,28886.858092,-1509390.236067,-1890872.823104,-2295256.113441,-2547495.907247,-3510567.308732,-2468547.757691,-2474304.851807,-2441357.128782,-2447337.919156,22852.959973,-2543192.57059,-2525094.094884
236.0,0.921875,-263969.631668,83344.827097,-1631252.662093,28894.368278,-1509402.037788,-1890872.823104,-2295822.596052,-2547501.271665,-3510561.407871,-2468562.778063,-2474301.633156,-2441348.00927,-2447572.344252,22469.404038,-2543160.92052,-2525080.683837
237.0,0.92578125,-263686.926804,83328.197399,-1631037.548904,28865.400417,-1508455.217893,-1889910.982837,-2295348.381442,-2546560.889073,-3509611.369325,-2467632.051424,-2473348.9124,-2440383.486793,-2446974.211571,22532.167737,-2542217.319276,-2524123.671546
238.0,0.9296875,-260253.698856,79841.861706,-1619749.73914,26343.587201,-1492972.969171,-1874530.121628,-2284392.092752,-2531321.112075,-3494582.950423,-2452250.653774,-2458039.39796,-2425054.124004,-2430985.025285,20835.938553,-2527002.755046,-2508915.544619
239.0,0.93359375,-262563.617535,81683.466635,-1626247.123032,27784.470056,-1503291.428482,-1884895.251381,-2290773.6052,-2541474.34729,-3504750.133127,-2462456.460292,-2468369.122549,-2435413.352896,-2438764.505239,21964.612241,-2537293.855821,-2519195.916557
240.0,0.9375,-264138.610856,83257.387073,-1630835.31032,28853.598696,-1509441.198044,-1890998.350501,-2295349.454325,-2547501.808107,-3510657.430966,-2468552.585668,-2474407.848645,-2441459.589179,-2445688.896857,22435.608201,-2543277.328405,-2525200.310373
241.0,0.94140625,-264043.124204,83432.803563,-1631112.650765,28953.376884,-1509457.2913,-1890968.846198,-2295533.990328,-2547525.947991,-3510629.535989,-2468594.964575,-2474391.218947,-2441426.866225,-2446627.670124,22575.619528,-2543258.016498,-2525177.243373
242.0,0.9453125,-263792.06941,83372.722074,-1631385.163234,28957.668419,-1509459.437067,-1890937.196128,-2295487.856327,-2547540.431922,-3510609.151198,-2468614.276482,-2474367.615505,-2441401.117015,-2447259.062202,22850.277764,-2543250.506312,-2525151.494163
243.0,0.94921875,-263815.136411,83144.197839,-1631831.482867,28833.750347,-1509437.442951,-1890904.473174,-2295780.753586,-2547518.974247,-3510574.818918,-2468583.699296,-2474321.481505,-2441363.566084,-2447602.384997,22713.485088,-2543201.690102,-2525102.677954
244.0,0.953125,-264015.765669,83104.501141,-1632341.102641,28779.033277,-1509444.953137,-1890905.009616,-2296338.116686,-2547519.510689,-3510564.626523,-2468584.235738,-2474312.898435,-2441356.055898,-2447791.748976,22390.010642,-2543173.795125,-2525086.048256
245.0,0.95703125,-264009.328366,83289.573585,-1632700.518692,28878.275022,-1509451.390439,-1890895.353662,-2296598.827433,-2547525.411549,-3510553.897685,-2468603.011203,-2474312.898435,-2441343.717735,-2448002.034188,22489.252387,-2543171.112915,-2525075.85586
246.0,0.9609375,-263783.48634,83282.063399,-1632893.637764,28912.07086,-1509433.687858,-1890864.240034,-2296515.678944,-2547510.927619,-3510535.12222,-2468601.401878,-2474287.685667,-2441315.822758,-2448246.115237,23004.773021,-2543157.165427,-2525051.715976
247.0,0.96484375,-263785.095666,83065.877326,-1633187.071465,28805.85537,-1509436.906509,-1890863.703592,-2296669.101318,-2547509.854735,-3510538.877313,-2468595.501017,-2474275.883946,-2441314.749874,-2448363.059564,22808.97174,-2543136.244194,-2525047.424441
248.0,0.96875,-263999.135971,82983.801721,-1633562.580772,28648.141461,-1509422.422579,-1890852.438313,-2297144.925254,-2547487.860619,-3510514.200987,-2468568.142482,-2474253.889829,-2441293.828642,-2448373.788401,22398.05727,-2543096.011054,-2525019.529464
249.0,0.97265625,-264050.63439,83160.291095,-1633812.562682,28679.791532,-1509427.786997,-1890857.802732,-2297420.119932,-2547496.443688,-3510511.518778,-2468585.308622,-2474264.618667,-2441295.437967,-2448409.730006,22400.739479,-2543102.448356,-2525020.065906
250.0,0.9765625,-263830.693225,83208.570863,-1633891.419636,28904.024232,-1509417.05816,-1890838.490825,-2297291.910326,-2547493.761479,-3510498.107731,-2468586.917947,-2474249.598294,-2441282.026921,-2448544.376915,22715.630855,-2543112.10431,-2525011.482836
251.0,0.98046875,-263779.731247,83011.696698,-1634033.576731,28821.948626,-1509420.813253,-1890842.245918,-2297312.295116,-2547493.225037,-3510500.78994,-2468581.553528,-2474243.160992,-2441286.318455,-2448659.711916,22753.181786,-2543114.786519,-2525008.800627
252.0,0.984375,-263982.506273,82881.877766,-1634295.360362,28724.316206,-1509406.865764,-1890832.589964,-2297717.845168,-2547470.158037,-3510485.769568,-2468550.976342,-2474221.166876,-2441267.006548,-2448606.06773,22425.415805,-2543078.844914,-2524984.124301
253.0,0.98828125,-264087.648879,83033.154372,-1634482.042132,28789.225672,-1509411.693741,-1890832.589964,-2298019.861939,-2547468.012269,-3510482.014475,-2468555.267877,-2474224.921969,-2441258.95992,-2448594.802451,22341.730874,-2543074.553379,-2524982.514975
254.0,0.9921875,-263899.357784,83124.885932,-1634481.50569,28866.473301,-1509414.375951,-1890826.689103,-2297889.506565,-2547476.058898,-3510483.623801,-2468574.579784,-2474231.359271,-2441260.032804,-2448687.606893,22740.307181,-2543094.93817,-2524989.48872
255.0,0.99609375,-263772.221061,82955.906744,-1634516.374411,28799.95451,-1509429.396323,-1890841.709476,-2297801.530099,-2547493.761479,-3510504.545034,-2468589.600156,-2474241.551666,-2441280.417595,-2448777.192685,22903.385508,-2543107.812775,-2525007.727743
0.0,1.0,-263939.054482,82788.000439,-1634708.4206,28687.301718,-1509449.244672,-1890869.604453,-2298120.176568,-2547509.318293,-3510523.320499,-2468596.037459,-2474254.426271,-2441302.411712,-2448719.256964,22460.284526,-2543108.349217,-2525024.357441
1.0,1.00390625,-264085.503112,82902.262557,-1634868.816718,28711.978044,-1509437.979393,-1890856.729848,-2298449.015432,-2547491.615712,-3510500.78994,-2468579.407761,-2474238.333015,-2441280.417595,-2448695.653521,22287.013803,-2543081.527124,-2525002.899766
2.0,1.0078125,-263944.418901,82919.965138,-1634834.484438,28629.365996,-1509438.515835,-1890850.828987,-2298349.773687,-2547494.834363,-3510494.88908,-2468587.454389,-2474240.478783,-2441273.443851,-2448782.020662,22544.505899,-2543095.474612,-2525000.753999
3.0,1.01171875,-263815.136411,82513.878645,-1634795.860624,28729.680625,-1509443.343811,-1890858.875615,-2298176.502964,-2547498.589456,-3510497.571289,-2468588.527273,-2474234.577922,-2441276.12606,-2448852.294547,22739.234297,-2543113.713636,-2525005.581976
4.0,1.015625,-263962.657924,82710.216368,-1634920.851579,28699.639881,-1509441.198044,-1890865.84936,-2298407.709409,-2547487.860619,-3510497.571289,-2468570.824691,-2474223.312643,-2441273.980293,-2448800.796127,22624.97218,-2543090.646635,-2524995.38958
5.0,1.01953125,-264145.048159,82910.309185,-1635066.227325,28704.467857,-1509434.2243,-1890860.484941,-2298750.495762,-2547470.158037,-3510482.550917,-2468557.413644,-2474209.901596,-2441258.423478,-2448733.740894,22347.631734,-2543049.340612,-2524976.614115
6.0,1.0234375,-264046.879297,83074.996838,-1635038.332348,28807.464696,-1509431.54209,-1890848.146778,-2298693.632924,-2547466.939386,-3510470.749196,-2468564.923831,-2474207.755829,-2441248.767525,-2448780.947778,22458.138759,-2543054.70503,-2524970.713254
7.0,1.02734375,-262597.413373,81714.580263,-1630253.270895,27847.233754,-1503131.032363,-1884588.406633,-2294006.203891,-2541252.796799,-3504320.979633,-2462298.209941,-2467950.697893,-2434987.954496,-2442541.592424,21953.883404,-2536848.07263,-2518757.10711
8.0,1.03125,-260516.018929,79134.831325,-1621707.751955,25982.025383,-1493119.417801,-1874758.109422,-2286202.047611,-2531416.598727,-3494726.716843,-2452332.192937,-2458146.686333,-2425178.578517,-2430323.056021,20552.160806,-2527106.824768,-2509029.270295
9.0,1.03515625,-264098.914158,82597.027135,-1632429.615549,28505.447925,-1508617.223336,-1890198.515677,-2296841.835599,-2546648.865539,-3509820.581653,-2467685.159169,-2473533.448402,-2440591.626238,-2444726.520148,22189.381384,-2542402.928162,-2524326.446572
10.0,1.0390625,-264226.587323,83020.816209,-1632991.270183,28786.007021,-1509498.597324,-1891025.172594,-2297473.764118,-2547520.047131,-3510619.880035,-2468586.381505,-2474364.396854,-2441408.090759,-2446644.299822,22415.22341,-2543223.684218,-2525154.712815
11.0,1.04296875,-263972.850319,82970.927116,-1632966.057416,28795.126533,-1509472.848114,-1890965.091105,-2297268.306883,-2547503.953875,-3510569.454499,-2468577.261994,-2474310.752667,-2441350.69148,-2447362.595482,22695.782506,-2543186.66973,-2525101.068628
12.0,1.046875,-264003.963948,82744.012206,-1633169.905325,28672.817787,-1509456.218416,-1890934.513919,-2297413.146187,-2547486.251293,-3510538.340871,-2468553.658551,-2474268.37376,-2441316.895642,-2447749.370068,22570.255109,-2543141.608613,-2525056.543953
13.0,1.05078125,-264208.348299,82698.414647,-1633494.452655,28614.345624,-1509450.317556,-1890921.102872,-2297849.273425,-2547470.694479,-3510513.664545,-2468535.95597,-2474244.770318,-2441296.510851,-2447910.83907,22234.4425,-2543098.156822,-2525026.503208
14.0,1.0546875,-263983.042715,82885.632859,-1633754.62696,28749.528974,-1509468.020137,-1890914.129128,-2297821.378448,-2547493.225037,-3510506.690801,-2468572.434017,-2474251.20762,-2441289.000665,-2448328.190843,22606.733156,-2543122.296706,-2525024.893883
15.0,1.05859375,-263978.214738,82667.837461,-1633934.334986,28641.704159,-1509468.020137,-1890911.446918,-2297872.340426,-2547490.542828,-3510505.617917,-2468564.923831,-2474239.405899,-2441284.70913,-2448439.770751,22579.911063,-2543115.859403,-2525016.310813
16.0,1.0625,-264184.744857,82573.423692,-1634213.821198,28551.581925,-1509462.655719,-1890910.374035,-2298269.307407,-2547476.058898,-3510496.498406,-2468548.830575,-2474221.703317,-2441273.980293,-2448411.875774,22396.447944,-2543076.162705,-2524998.608231
17.0,1.06640625,-264244.289904,82748.303741,-1634387.628363,28488.818227,-1509469.093021,-1890911.98336,-2298482.81127,-2547484.105526,-3510496.498406,-2468563.314505,-2474229.213504,-2441272.370967,-2448458.546216,22277.894292,-2543070.798286,-2524999.681115
18.0,1.0703125,-264029.713157,82801.411486,-1634390.310572,28653.50588,-1509457.827742,-1890895.890104,-2298289.155756,-2547485.178409,-3510487.378894,-2468568.142482,-2474224.385527,-2441262.715013,-2448565.83459,22523.048225,-2543084.209333,-2524993.780255
19.0,1.07421875,-263943.882459,82600.782228,-1634472.386178,28649.214345,-1509472.848114,-1890911.98336,-2298238.730221,-2547502.880991,-3510508.300127,-2468577.798435,-2474234.04148,-2441283.099804,-2448660.7848,22569.718667,-2543103.52124,-2525009.873511
20.0,1.078125,-264134.319321,82462.380226,-1634685.353599,28546.217507,-1509485.186277,-1890929.1495,-2298576.152155,-2547506.636084,-3510512.591662,-2468572.970459,-2474236.187248,-2441291.146432,-2448606.06773,22258.582384,-2543094.401728,-2525011.482836
21.0,1.08203125,-264250.727207,82606.683088,-1634836.630206,28606.298996,-1509496.451556,-1890937.196128,-2298830.4256,-2547510.391177,-3510514.200987,-2468587.990831,-2474245.30676,-2441291.146432,-2448591.047357,22342.267316,-2543086.3551,-2525012.55572
22.0,1.0859375,-264077.456484,82704.85195,-1634806.053019,28685.15595,-1509479.821858,-1890910.910477,-2298657.154877,-2547494.834363,-3510494.88908,-2468584.235738,-2474229.213504,-2441269.152316,-2448701.01794,22512.319387,-2543072.407612,-2524998.608231
23.0,1.08984375,-263980.360506,82534.263436,-1634811.417438,28619.710042,-1509463.728602,-1890893.744337,-2298506.414712,-2547477.668223,-3510479.868708,-2468561.168738,-2474206.146503,-2441254.131943,-2448745.542615,22561.672039,-2543065.433868,-2524981.978534
24.0,1.09375,-264155.776996,82356.164736,-1634968.594905,28503.302157,-1509484.113393,-1890923.248639,-2298770.880553,-2547493.225037,-3510502.935708,-2468565.460272,-2474219.021108,-2441275.053176,-2448682.778917,22267.165454,-2543070.261844,-2524997.535348
25.0,1.09765625,-264309.735812,82459.698017,-1635102.705372,28531.197134,-1509486.259161,-1890923.248639,-2299068.069347,-2547488.39706,-3510491.133987,-2468559.559412,-2474217.411782,-2441268.615874,-2448621.624544,22082.09301,-2543055.241472,-2524986.80651
26.0,1.1015625,-264166.505833,82596.490693,-1635064.617999,28626.147345,-1509472.311672,-1890901.254523,-2298932.349555,-2547474.449572,-3510470.212754,-2468555.804319,-2474203.464294,-2441248.767525,-2448671.513637,22330.465595,-2543057.923681,-2524973.931906
27.0,1.10546875,-263986.797808,82463.989552,-1635013.11958,28451.803738,-1509465.337928,-1890894.280779,-2298703.825319,-2547475.522456,-3510469.676312,-2468554.194993,-2474195.954108,-2441251.449734,-2448732.131568,22530.558411,-2543070.798286,-2524975.004789
28.0,1.109375,-264111.788763,82253.167898,-1635125.23593,28341.296714,-1509470.702347,-1890913.592686,-2298889.434205,-2547485.178409,-3510486.842452,-2468550.4399,-2474201.854968,-2441265.933665,-2448682.242475,22289.696013,-2543069.725403,-2524983.051417
29.0,1.11328125,-264300.6163,82077.214965,-1635259.882839,28501.692832,-1509478.748975,-1890928.613058,-2299209.153558,-2547483.032642,-3510484.696684,-2468550.4399,-2474203.464294,-2441264.324339,-2448631.280497,22171.678802,-2543052.559263,-2524979.296324
30.0,1.1171875,-264222.832229,82140.515106,-1635226.623443,28602.543903,-1509484.649835,-1890926.467291,-2299135.661022,-2547482.4962,-3510475.040731,-2468558.486528,-2474204.000736,-2441255.741269,-2448682.242475,22326.710502,-2543048.80417,-2524979.832766
31.0,1.12109375,-263983.579157,82407.126714,-1634836.093764,28538.707321,-1509063.006528,-1890502.678216,-2298578.834364,-2547062.99866,-3510056.616075,-2468133.62457,-2473772.701475,-2440827.124217,-2448339.992564,22442.581945,-2542640.035467,-2524557.653017
32.0,1.125,-260979.504702,79067.776092,-1623498.931348,26088.777314,-1494272.767815,-1875854.596598,-2287909.005631,-2532490.555345,-3495692.312204,-2453425.461462,-2459140.176671,-2426182.26125,-2432952.157611,20466.330107,-2528075.63878,-2510017.932656
33.0,1.12890625,-262725.622979,80488.274156,-1627640.262561,27100.506675,-1501609.146787,-1883260.713012,-2292370.592638,-2539720.182385,-3502978.265641,-2460675.473294,-2466538.782899,-2433598.033619,-2437464.706596,21095.039975,-2535446.350032,-2517383.279488
34.0,1.1328125,-264474.423465,82545.528715,-1633177.951953,28569.820949,-1509568.334766,-1891137.825386,-2297810.649611,-2547530.239526,-3510650.993663,-2468574.579784,-2474385.318087,-2441446.714574,-2445963.555093,22184.016965,-2543248.896986,-2525186.899327
35.0,1.13671875,-264213.176276,82498.321831,-1633074.955115,28579.476902,-1509558.142371,-1891085.790525,-2297557.985492,-2547537.21327,-3510613.442733,-2468588.527273,-2474342.939179,-2441398.971248,-2446883.552895,22458.675201,-2543220.465567,-2525150.42128
36.0,1.140625,-264227.660206,82265.506061,-1633251.444489,28456.095273,-1509546.877092,-1891056.286222,-2297660.445888,-2547527.020875,-3510582.865546,-2468573.5069,-2474302.169597,-2441365.711852,-2447356.15818,22343.340199,-2543175.940892,-2525108.042372
37.0,1.14453125,-264431.508116,82203.815246,-1633581.356237,28391.185807,-1509539.366906,-1891040.192966,-2298075.115451,-2547512.536944,-3510552.824802,-2468558.486528,-2474272.665295,-2441339.4262,-2447554.641671,22005.381823,-2543130.879775,-2525071.027883
38.0,1.1484375,-264440.091186,82381.913946,-1633809.880472,28485.063134,-1509538.830464,-1891024.09971,-2298242.485314,-2547510.927619,-3510535.658662,-2468567.069598,-2474264.082225,-2441318.504968,-2447758.48958,22050.979382,-2543117.468729,-2525051.715976
39.0,1.15234375,-264209.421183,82385.669039,-1633892.49252,28521.541181,-1509527.028743,-1890995.668292,-2298042.928939,-2547504.490316,-3510519.565406,-2468568.142482,-2474245.30676,-2441297.583735,-2448013.835909,22497.299015,-2543113.713636,-2525034.013395
40.0,1.15625,-264184.744857,82167.337199,-1634086.148034,28413.179924,-1509522.737208,-1890990.840315,-2298064.386614,-2547498.589456,-3510516.346755,-2468561.168738,-2474231.895713,-2441293.2922,-2448115.223421,22479.059992,-2543087.964426,-2525021.675232
41.0,1.16015625,-264392.347859,82065.413244,-1634387.091921,28321.448364,-1509536.148254,-1891006.397129,-2298440.432363,-2547502.880991,-3510517.95608,-2468561.705179,-2474231.895713,-2441299.729502,-2448091.083537,21996.798753,-2543070.798286,-2525020.602348
42.0,1.1640625,-264127.882019,81888.92387,-1633307.234443,28007.629872,-1507703.126395,-1889187.8592,-2297453.915769,-2545704.727853,-3508731.068221,-2466752.286762,-2472417.112877,-2439474.754271,-2446326.189795,21770.956727,-2541261.916311,-2523212.793256
43.0,1.16796875,-253901.154268,71580.656955,-1603550.267643,21424.415281,-1468052.025801,-1849681.061468,-2270001.503229,-2507817.984559,-3472481.545506,-2428437.999301,-2434312.037744,-2401267.755183,-2407937.336914,16768.099876,-2503447.056228,-2485425.82815
44.0,1.171875,-255082.399259,72169.133683,-1604168.785115,22129.836336,-1474783.834789,-1852534.9322,-2271572.205016,-2514644.743758,-3479834.554176,-2435211.114313,-2441580.288599,-2408563.901015,-2405360.806627,17595.293235,-2510783.4352,-2492709.635819
45.0,1.17578125,-264621.944978,81761.787148,-1626748.696178,28208.259131,-1508628.488616,-1886452.542121,-2292978.917715,-2546610.241724,-3510130.645052,-2467563.923307,-2473834.928731,-2440925.293079,-2435200.921917,22057.416684,-2542744.641631,-2524702.492321
46.0,1.1796875,-264891.775238,82207.570339,-1627538.875048,28450.194412,-1509618.22386,-1890297.220981,-2293952.559704,-2547560.280271,-3510873.080596,-2468549.903458,-2474635.299997,-2441704.20667,-2440167.837163,22021.475079,-2543495.660245,-2525499.108493
47.0,1.18359375,-264619.799211,82286.427294,-1627940.133564,28515.103878,-1509611.250116,-1891245.650202,-2294032.489542,-2547562.96248,-3510771.156641,-2468572.970459,-2474532.8396,-2441582.434366,-2442719.691124,22266.629012,-2543387.83543,-2525376.263306
48.0,1.1875,-264416.487743,82099.745524,-1628570.452758,28441.611343,-1509599.984837,-1891237.603574,-2294178.40173,-2547566.181131,-3510712.148036,-2468582.626412,-2474462.565716,-2441512.696923,-2444284.49205,22380.89113,-2543322.925964,-2525294.1877
49.0,1.19140625,-264534.504954,81901.798475,-1629411.593605,28315.011062,-1509586.57379,-1891192.006015,-2294742.738574,-2547553.842968,-3510660.113175,-2468571.361133,-2474405.166436,-2441456.370527,-2445163.183828,22070.827731,-2543246.214777,-2525220.695164
50.0,1.1953125,-264668.078979,81983.874081,-1630223.23015,28329.494992,-1509539.903347,-1891121.195688,-2295344.626349,-2547505.5632,-3510578.574011,-2468533.27376,-2474332.210342,-2441376.440689,-2445717.328276,21857.86031,-2543153.410334,-2525129.500047
51.0,1.19921875,-264511.974396,82111.547245,-1630822.972157,28420.69011,-1509539.903347,-1891090.618502,-2295516.824188,-2547508.24541,-3510556.043453,-2468553.12211,-2474316.653528,-2441349.618596,-2446197.443747,22087.457429,-2543145.363706,-2525104.823721
52.0,1.203125,-264309.19937,81973.681685,-1631348.148745,28378.847644,-1509537.75758,-1891069.697269,-2295565.640398,-2547512.000503,-3510541.559522,-2468558.486528,-2474298.950946,-2441336.207549,-2446563.2971,22287.013803,-2543143.217938,-2525088.194023
53.0,1.20703125,-264418.097069,81755.886287,-1631971.494194,28249.565154,-1509541.512673,-1891068.087944,-2295991.038798,-2547507.172526,-3510535.658662,-2468550.4399,-2474282.321248,-2441326.551596,-2446782.165382,22039.177661,-2543120.150938,-2525069.955
54.0,1.2109375,-264604.242397,81792.900776,-1632557.288713,28239.909201,-1509512.00837,-1891032.146338,-2296536.063735,-2547470.158037,-3510487.915336,-2468515.571179,-2474239.405899,-2441280.954037,-2446869.605406,21782.222007,-2543061.142333,-2525017.920139
55.0,1.21484375,-264517.875256,81954.90622,-1632932.79802,28338.078062,-1509515.763463,-1891019.271734,-2296685.731016,-2547473.91313,-3510479.332266,-2468534.883086,-2474237.260132,-2441269.152316,-2447021.954897,22174.361011,-2543056.850798,-2525011.482836
56.0,1.21875,-264321.537533,81870.684847,-1633192.972325,28328.958551,-1509538.294022,-1891029.464129,-2296606.33762,-2547499.125898,-3510504.008592,-2468567.60604,-2474251.744062,-2441286.854897,-2447194.689178,22378.745363,-2543074.016937,-2525030.794743
57.0,1.22265625,-263486.297546,80727.527228,-1630158.857126,27524.29575,-1504863.739593,-1886387.632655,-2293665.026863,-2542877.679214,-3505938.351862,-2463904.853333,-2469599.18375,-2436638.049679,-2442654.245216,21522.584143,-2538436.476998,-2520406.129409
58.0,1.2265625,-260969.312307,77721.307006,-1620289.9361,25402.131725,-1492319.046535,-1873991.533994,-2284695.718848,-2530535.761182,-3493839.978437,-2451426.142624,-2457264.239462,-2424285.939251,-2428228.786973,19685.807191,-2526161.077757,-2508154.870052
59.0,1.23046875,-264381.08258,81286.499654,-1630856.767995,27987.781523,-1507895.709025,-1889537.082855,-2294934.24832,-2545843.666296,-3509018.601062,-2466864.939554,-2472742.73309,-2439784.281228,-2442085.080395,21723.749843,-2541575.198361,-2523541.632121
60.0,1.234375,-264512.510838,81899.652708,-1632048.741823,28313.938178,-1509566.188999,-1891153.918642,-2295925.056449,-2547492.152154,-3510591.985058,-2468542.393272,-2474346.694272,-2441386.633085,-2444929.295174,22214.057709,-2543181.841753,-2525146.666187
61.0,1.23828125,-264496.417582,81673.27424,-1632333.056013,28195.920968,-1509572.089859,-1891135.143177,-2296114.420428,-2547503.953875,-3510571.063825,-2468549.903458,-2474317.18997,-2441362.493201,-2445672.267159,22115.352406,-2543150.728124,-2525118.234768
62.0,1.2421875,-264689.000212,81604.073239,-1632783.667181,28126.719967,-1509564.043231,-1891111.539735,-2296633.159713,-2547493.225037,-3510539.413755,-2468537.028854,-2474285.003458,-2441331.916014,-2446042.94849,21775.248262,-2543099.229705,-2525077.465186
63.0,1.24609375,-264701.874817,81780.026171,-1633132.354394,28215.769317,-1509556.533045,-1891084.717641,-2296913.718809,-2547484.641967,-3510510.445894,-2468541.320388,-2474265.155109,-2441301.87527,-2446334.236423,21809.0441,-2543072.407612,-2525044.742232
64.0,1.25,-264480.324326,81791.29145,-1633330.837885,28257.07534,-1509539.903347,-1891051.994688,-2296820.914366,-2547475.522456,-3510484.160243,-2468537.565295,-2474241.015225,-2441272.907409,-2446602.457357,22116.42529,-2543068.116077,-2525018.993022
65.0,1.25390625,-264458.330209,81574.032494,-1633622.125819,28153.005618,-1509558.142371,-1891063.796409,-2296928.20274,-2547492.152154,-3510498.107731,-2468549.903458,-2474242.62455,-2441286.854897,-2446797.722196,22203.328872,-2543075.626263,-2525025.966767
66.0,1.2578125,-264663.787444,81456.551725,-1634015.874149,28061.810501,-1509560.288138,-1891065.942176,-2297384.178327,-2547483.032642,-3510493.816196,-2468542.393272,-2474230.286387,-2441277.735386,-2446832.054476,21922.233334,-2543035.393123,-2525011.482836
67.0,1.26171875,-264744.790166,81614.802076,-1634296.433246,28087.55971,-1509550.632185,-1891050.921804,-2297685.658656,-2547468.012269,-3510471.285638,-2468536.492412,-2474218.484666,-2441256.277711,-2446860.485895,21729.114262,-2543013.935448,-2524992.170929
68.0,1.265625,-264545.770233,81675.420007,-1634392.992782,28009.77564,-1509571.016976,-1891062.723525,-2297567.641445,-2547501.271665,-3510491.133987,-2468571.361133,-2474239.942341,-2441275.589618,-2446960.264082,22028.448824,-2543054.168588,-2525017.383697
69.0,1.26953125,-264473.887023,81483.373819,-1634546.951598,28125.110641,-1509570.480534,-1891065.405734,-2297546.720212,-2547502.880991,-3510494.88908,-2468568.678924,-2474235.114364,-2441278.271827,-2447063.26092,22104.087127,-2543060.069449,-2525016.310813
70.0,1.2734375,-264665.39677,81327.805677,-1634823.755601,28049.472338,-1509572.089859,-1891071.306595,-2297924.375287,-2547494.834363,-3510487.378894,-2468552.049226,-2474225.994852,-2441273.443851,-2447061.115153,21786.513542,-2543036.466007,-2525005.045534
71.0,1.27734375,-264792.533492,81456.551725,-1635039.941673,28100.434315,-1509568.334766,-1891063.259967,-2298246.776849,-2547484.105526,-3510471.285638,-2468546.684807,-2474215.802457,-2441259.496362,-2447018.199804,21677.079401,-2543018.226983,-2524990.561603
72.0,1.28125,-264619.799211,81561.694331,-1635070.51886,28185.728572,-1509575.844953,-1891063.259967,-2298132.514731,-2547497.516572,-3510479.868708,-2468571.897575,-2474227.604178,-2441263.787897,-2447084.182153,22130.90922,-2543038.075332,-2525001.826883
73.0,1.28515625,-264470.668372,81399.152446,-1635115.043535,28123.501316,-1509552.24151,-1891036.437873,-2298005.91445,-2547478.741107,-3510465.921219,-2468549.903458,-2474200.782085,-2441243.403106,-2447141.044991,22151.830453,-2543015.544774,-2524980.90565
74.0,1.2890625,-264625.16363,81210.86135,-1635313.527025,28002.265454,-1509569.40765,-1891059.504874,-2298283.254896,-2547484.641967,-3510479.332266,-2468548.294133,-2474206.682945,-2441260.569246,-2447112.613572,21811.189867,-2543011.253239,-2524987.342952
75.0,1.29296875,-264795.215701,81290.791189,-1635495.380818,28018.35871,-1509577.99072,-1891070.233711,-2298621.749714,-2547486.787735,-3510477.186498,-2468552.049226,-2474213.120247,-2441264.324339,-2447048.240548,21599.29533,-2543007.498146,-2524990.025162
76.0,1.296875,-264670.761188,81432.948283,-1635503.427446,28114.381804,-1509573.699185,-1891056.286222,-2298546.11141,-2547486.251293,-3510465.384777,-2468558.486528,-2474209.901596,-2441251.449734,-2447058.432944,21832.647542,-2543017.1541,-2524985.733627
77.0,1.30078125,-264501.245558,81312.785305,-1635474.996027,27989.390849,-1509561.361022,-1891040.729408,-2298341.190617,-2547478.741107,-3510458.411033,-2468543.466156,-2474191.662573,-2441240.184455,-2447118.514433,22053.125149,-2543020.372751,-2524975.004789
78.0,1.3046875,-264631.600932,81099.281442,-1635609.106494,27832.749824,-1509580.136488,-1891073.452362,-2298533.236806,-2547498.053014,-3510480.941591,-2468552.049226,-2474205.610061,-2441265.933665,-2447076.671967,21826.746682,-2543032.174472,-2524992.707371
79.0,1.30859375,-264829.011539,81134.686605,-1635773.257705,27978.662011,-1509602.130604,-1891099.738014,-2298884.606228,-2547510.927619,-3510495.961964,-2468567.069598,-2474225.994852,-2441283.099804,-2447027.319315,21660.986145,-2543035.393123,-2525006.654859
80.0,1.3125,-264756.591887,81302.59291,-1635780.767891,28082.731734,-1509590.328883,-1891078.816781,-2298860.466344,-2547499.125898,-3510477.72294,-2468567.60604,-2474215.802457,-2441262.715013,-2447025.173548,21880.92731,-2543019.299867,-2524995.926022
81.0,1.31640625,-264547.379559,81109.473838,-1635713.712658,28075.757989,-1509574.772069,-1891058.968432,-2298606.192899,-2547485.178409,-3510461.629684,-2468553.12211,-2474191.126131,-2441243.403106,-2447075.062642,22003.236056,-2543011.789681,-2524979.296324
82.0,1.3203125,-264649.303514,80568.203994,-1635794.178938,27950.230593,-1509597.302627,-1891088.472735,-2298709.72618,-2547492.688595,-3510476.113615,-2468549.367016,-2474195.954108,-2441260.032804,-2447068.625339,21838.548403,-2543017.1541,-2524987.879394
83.0,1.32421875,-263203.592682,79223.344233,-1629749.01554,26693.347298,-1501487.374483,-1883049.891359,-2293260.549696,-2539490.048825,-3502577.543566,-2460476.453361,-2466158.445616,-2433206.967498,-2438930.802218,20583.810876,-2534996.811747,-2516993.286251
84.0,1.328125,-261541.695779,77806.064821,-1622980.192063,25480.452237,-1494288.861071,-1876003.727437,-2287232.015995,-2532441.202693,-3495748.102158,-2453335.339229,-2459172.899624,-2426203.718925,-2429194.382333,19851.567728,-2528069.73792,-2510063.530214
85.0,1.33203125,-264705.62991,81225.881723,-1633302.942908,27979.198453,-1509234.667925,-1890870.140895,-2297056.948788,-2547116.106405,-3510248.125821,-2468140.598314,-2473973.330733,-2441035.263662,-2443182.640455,21952.274078,-2542818.670609,-2524785.64081
86.0,1.3359375,-264775.367352,81114.301814,-1633589.939307,27954.522127,-1509606.422139,-1891203.271294,-2297365.402861,-2547486.787735,-3510563.017197,-2468512.88897,-2474291.44076,-2441357.128782,-2444710.963334,21894.338357,-2543128.197566,-2525110.18814
87.0,1.33984375,-264961.51268,81038.663511,-1633843.139868,27880.49315,-1509623.051837,-1891199.516201,-2297763.442727,-2547500.198782,-3510548.533267,-2468523.617807,-2474275.883946,-2441342.10841,-2445303.195155,21545.651143,-2543089.573752,-2525087.121139
88.0,1.34375,-264979.215262,81214.080002,-1634063.081034,27969.5425,-1509628.416256,-1891181.277177,-2297958.171124,-2547504.490316,-3510527.075592,-2468542.393272,-2474264.618667,-2441318.504968,-2445693.188392,21564.96305,-2543073.480496,-2525063.517697
89.0,1.34765625,-264748.545259,81231.246141,-1634163.932105,28013.530733,-1509605.349255,-1891136.216061,-2297782.218192,-2547488.39706,-3510490.061103,-2468531.664435,-2474229.213504,-2441279.881153,-2446010.761978,21869.125589,-2543056.850798,-2525028.648976
90.0,1.3515625,-264708.312119,81016.132953,-1634374.217316,27909.997452,-1509608.031465,-1891131.388084,-2297803.675867,-2547487.860619,-3510486.842452,-2468524.154249,-2474215.802457,-2441279.344711,-2446252.160818,21869.125589,-2543051.486379,-2525018.993022
91.0,1.35546875,-264912.160028,80894.897091,-1634699.83753,27815.047242,-1509602.667046,-1891128.169433,-2298194.205546,-2547474.449572,-3510470.749196,-2468504.842342,-2474194.344782,-2441261.64213,-2446355.157656,21533.31298,-2543016.081216,-2524992.707371
92.0,1.359375,-265001.209378,81051.001674,-1634929.434649,27888.539778,-1509605.885697,-1891123.341456,-2298449.015432,-2547473.376688,-3510461.629684,-2468517.180504,-2474195.417666,-2441251.449734,-2446382.516191,21614.852144,-2543005.352379,-2524984.124301
93.0,1.36328125,-264799.507236,81120.202675,-1634984.688161,27922.335615,-1509608.567906,-1891115.294828,-2298284.327779,-2547482.4962,-3510465.384777,-2468535.95597,-2474199.709201,-2441251.986176,-2446493.559658,21865.906938,-2543016.617658,-2524992.707371
94.0,1.3671875,-264709.385003,80933.520905,-1635081.247697,27684.155427,-1509612.323,-1891120.122805,-2298203.861499,-2547492.152154,-3510473.967847,-2468535.95597,-2474197.026991,-2441257.887037,-2446592.801403,21863.76117,-2543023.591402,-2524995.38958
95.0,1.37109375,-264903.576959,80773.661229,-1635322.646537,27758.720846,-1509601.594162,-1891120.659247,-2298524.117294,-2547479.813991,-3510460.5568,-2468511.279644,-2474182.006619,-2441248.231083,-2446580.46324,21551.015562,-2542995.696425,-2524976.614115
96.0,1.375,-265038.760309,80897.042858,-1635516.838493,27849.379522,-1509599.984837,-1891119.586363,-2298815.405228,-2547471.767363,-3510450.900847,-2468509.133876,-2474177.715084,-2441239.111571,-2446537.011449,21416.905095,-2542982.82182,-2524966.958161
97.0,1.37890625,-264876.754865,81011.304976,-1635522.202912,27936.819546,-1509580.672929,-1891090.08206,-2298677.003226,-2547454.601223,-3510428.370288,-2468503.769458,-2474158.939619,-2441214.971687,-2446559.005566,21864.834054,-2542973.165867,-2524949.25558
98.0,1.3828125,-264720.650282,80860.028369,-1635535.613958,27881.566034,-1509577.454278,-1891084.1812,-2298504.268945,-2547454.064781,-3510433.734707,-2468503.769458,-2474152.502317,-2441212.289478,-2446615.331962,21952.81052,-2542968.874332,-2524948.182696
99.0,1.38671875,-264869.244679,80666.372855,-1635707.275356,27760.330172,-1509590.865325,-1891105.102432,-2298744.058459,-2547461.038525,-3510448.755079,-2468502.160132,-2474159.476061,-2441227.30985,-2446600.848031,21582.665632,-2542965.65568,-2524957.838649
100.0,1.390625,-265045.734053,80743.084042,-1635869.2808,27775.886986,-1509602.667046,-1891120.659247,-2299060.559161,-2547465.866502,-3510446.609312,-2468508.597435,-2474167.522689,-2441232.674269,-2446540.2301,21366.47956,-2542963.509913,-2524960.520859
101.0,1.39453125,-264928.253284,80895.433533,-1635855.869753,27875.665173,-1509602.130604,-1891111.539735,-2298967.754718,-2547466.939386,-3510439.099126,-2468518.253388,-2474168.595573,-2441225.700525,-2446512.871565,21595.003795,-2542974.23875,-2524957.838649
102.0,1.3984375,-264763.029189,80787.072276,-1635802.225566,27852.061731,-1509605.885697,-1891107.2482,-2298733.329622,-2547469.621595,-3510441.244893,-2468516.107621,-2474162.694712,-2441225.700525,-2446561.151333,21826.21024,-2542990.332006,-2524959.984417
103.0,1.40234375,-264886.947261,80572.495529,-1635915.4148,27722.779241,-1509646.118837,-1891153.3822,-2298893.72574,-2547502.344549,-3510479.868708,-2468537.028854,-2474191.126131,-2441267.006548,-2446539.693658,21612.706377,-2543018.226983,-2524995.38958
104.0,1.40625,-265085.967193,80599.854064,-1636066.154965,27577.403495,-1509633.780674,-1891148.554224,-2299233.293442,-2547486.787735,-3510460.020359,-2468517.180504,-2474176.642201,-2441250.913292,-2446454.399401,21336.438815,-2542990.332006,-2524976.614115
105.0,1.41015625,-265020.521286,80775.270554,-1636064.009197,27756.038637,-1509617.150976,-1891129.778758,-2299207.544232,-2547480.350432,-3510443.390661,-2468515.571179,-2474169.668456,-2441233.210711,-2446410.411168,21553.697771,-2542986.040471,-2524965.885277
106.0,1.4140625,-264800.58012,80709.824647,-1635985.152243,27850.988847,-1509613.932325,-1891121.73213,-2298932.349555,-2547481.959758,-3510449.827963,-2468523.617807,-2474164.840479,-2441230.528501,-2446435.087494,22020.402196,-2542990.868448,-2524967.494603
107.0,1.41796875,-264856.906516,80483.982621,-1636063.472755,27727.070776,-1509609.64079,-1891122.805014,-2299007.987858,-2547472.840246,-3510451.437289,-2468506.451667,-2474154.111642,-2441228.919176,-2446422.749331,21679.76161,-2542970.483657,-2524959.984417
108.0,1.421875,-264910.550703,80303.201712,-1635537.223284,27560.773797,-1508695.007407,-1890222.119119,-2298711.335505,-2546557.133979,-3509545.923417,-2467582.698772,-2473237.868933,-2440315.358676,-2445452.325994,21221.103814,-2542040.29346,-2524045.351034
109.0,1.42578125,-261681.170664,77182.18293,-1623390.570091,25234.761862,-1493255.674035,-1874932.453028,-2287426.744393,-2531349.007052,-3494549.691027,-2452243.143587,-2457980.389354,-2425024.619701,-2429392.865824,19468.011793,-2526858.988626,-2508880.675898
110.0,1.4296875,-263623.626664,78906.30709,-1629464.164908,26756.647439,-1503430.366925,-1885134.504453,-2293354.963464,-2541371.350452,-3504577.398846,-2462321.276941,-2468174.394151,-2435240.618615,-2436455.123002,21014.573695,-2537051.384098,-2519030.15602
111.0,1.43359375,-265010.32889,80460.91562,-1633851.722938,27736.726729,-1509658.993442,-1891295.539295,-2297619.139864,-2547486.787735,-3510582.329104,-2468490.894853,-2474293.050086,-2441379.65934,-2443301.73055,21704.974378,-2543140.535729,-2525127.890721
112.0,1.4375,-265185.208939,80488.810598,-1634020.165684,27658.406217,-1509652.55614,-1891262.816341,-2297979.628799,-2547482.4962,-3510538.340871,-2468486.066876,-2474250.671178,-2441333.52534,-2444115.512862,21355.214281,-2543073.480496,-2525081.220279
113.0,1.44140625,-265206.130172,80659.399111,-1634208.45678,27742.091148,-1509664.894302,-1891249.941736,-2298166.310569,-2547496.443688,-3510519.028964,-2468511.279644,-2474243.160992,-2441313.676991,-2444558.077402,21357.89649,-2543056.850798,-2525061.908372
114.0,1.4453125,-264981.361029,80688.366972,-1634303.40699,27794.662451,-1509652.55614,-1891213.46369,-2297984.993218,-2547488.39706,-3510490.061103,-2468511.816086,-2474213.120247,-2441282.026921,-2444884.234057,21662.059028,-2543047.731286,-2525033.476953
115.0,1.44921875,-264944.882982,80477.545318,-1634509.937109,27695.957148,-1509679.378233,-1891232.239155,-2297982.311008,-2547515.755596,-3510513.664545,-2468531.664435,-2474224.921969,-2441300.265944,-2445174.985549,21679.225168,-2543065.433868,-2525046.351558
116.0,1.453125,-265148.19445,80347.726387,-1634840.921741,27596.715402,-1509679.914675,-1891233.312039,-2298360.502524,-2547509.318293,-3510504.545034,-2468520.399156,-2474210.97448,-2441291.146432,-2445289.784108,21498.444259,-2543031.63803,-2525028.648976
117.0,1.45703125,-265241.535335,80495.2479,-1635084.466348,27660.551984,-1509706.200326,-1891251.01462,-2298621.213272,-2547528.093759,-3510516.346755,-2468552.049226,-2474233.505038,-2441303.484595,-2445306.413806,21398.666072,-2543029.492263,-2525040.987139
118.0,1.4609375,-265043.051844,80573.031971,-1635151.521582,27626.219705,-1509682.596884,-1891214.000131,-2298459.207828,-2547510.927619,-3510489.524661,-2468543.466156,-2474209.365154,-2441273.980293,-2445335.918109,21563.353725,-2543016.617658,-2525014.165046
119.0,1.46484375,-264926.107517,80390.105294,-1635255.591304,27545.216983,-1509682.596884,-1891217.755224,-2298366.939827,-2547523.265782,-3510500.253499,-2468547.757691,-2474208.292271,-2441283.099804,-2445451.789552,21663.131912,-2543031.63803,-2525017.920139
120.0,1.46875,-265099.914682,80222.735432,-1635490.552841,27574.721286,-1509671.331605,-1891215.609457,-2298678.612552,-2547504.490316,-3510488.451778,-2468521.472039,-2474188.443922,-2441272.370967,-2445472.710785,21355.214281,-2543000.524402,-2524999.144673
121.0,1.47265625,-265242.071777,80338.070433,-1635677.234611,27617.100193,-1509680.987558,-1891223.119643,-2298972.582695,-2547508.24541,-3510484.160243,-2468528.445784,-2474195.417666,-2441271.298083,-2445392.780947,21199.646139,-2542997.842192,-2525000.217557
122.0,1.4765625,-265092.940938,80455.551202,-1635692.254983,27706.149543,-1509682.596884,-1891214.000131,-2298842.763763,-2547510.927619,-3510475.040731,-2468539.711063,-2474195.954108,-2441262.178571,-2445352.011365,21461.966212,-2543014.47189,-2525000.753999
123.0,1.48046875,-264957.757587,80308.56613,-1635700.838053,27655.724008,-1509675.62314,-1891203.271294,-2298666.274389,-2547505.5632,-3510471.285638,-2468528.445784,-2474180.397294,-2441254.131943,-2445407.801319,21689.954005,-2543017.1541,-2524991.098045
124.0,1.484375,-265107.96131,80111.155523,-1635866.062148,27533.415262,-1509679.378233,-1891214.000131,-2298902.845252,-2547502.880991,-3510479.868708,-2468522.544923,-2474177.715084,-2441260.569246,-2445407.801319,21563.890167,-2542992.477774,-2524991.098045
125.0,1.48828125,-265288.742219,80178.747198,-1636029.140476,27540.925448,-1509676.696024,-1891214.536573,-2299225.246814,-2547491.07927,-3510468.603428,-2468516.644063,-2474172.350666,-2441254.131943,-2445314.996876,21172.824046,-2542964.582797,-2524981.978534
126.0,1.4921875,-265179.84452,80330.023805,-1636021.63029,27640.703635,-1509682.060442,-1891209.172155,-2299139.952557,-2547495.907247,-3510462.702568,-2468527.909342,-2474175.032875,-2441249.303967,-2445243.650108,21367.016002,-2542980.139611,-2524981.978534
127.0,1.49609375,-264993.699192,80222.735432,-1635971.204754,27558.62803,-1509673.477372,-1891195.761108,-2298891.579973,-2547491.07927,-3510454.65594,-2468519.862714,-2474161.621828,-2441241.793781,-2445257.061154,21603.050423,-2542989.795564,-2524975.541231
128.0,1.5,-265103.133333,80001.721382,-1636077.956686,27322.593608,-1509665.430744,-1891200.589085,-2299031.054858,-2547486.787735,-3510453.583056,-2468503.233016,-2474150.892991,-2441242.330222,-2445247.405201,21396.520304,-2542977.457401,-2524970.713254
129.0,1.50390625,-265307.517684,80019.423964,-1636217.968013,27486.208378,-1509649.337488,-1891194.151782,-2299367.403909,-2547467.475828,-3510434.807591,-2468479.629574,-2474134.263293,-2441224.627641,-2445170.694014,21109.523905,-2542945.807331,-2524949.792021
130.0,1.5078125,-265252.800614,80184.111617,-1636207.775618,27609.590007,-1509649.87393,-1891184.495829,-2299346.482676,-2547465.33006,-3510426.760963,-2468487.676202,-2474139.09127,-2441215.508129,-2445078.426013,21385.791467,-2542949.562424,-2524947.109812
131.0,1.51171875,-265052.707798,79872.438892,-1636114.971175,27612.808658,-1509692.78928,-1891220.973876,-2299062.168486,-2547502.880991,-3510464.848335,-2468527.909342,-2474168.595573,-2441247.158199,-2445078.962455,21718.385424,-2542986.576913,-2524984.124301
132.0,1.515625,-265145.512241,79567.20347,-1636173.443338,27486.208378,-1509706.200326,-1891239.749341,-2299122.249975,-2547503.417433,-3510477.72294,-2468521.472039,-2474164.840479,-2441257.350595,-2445104.175222,21419.050863,-2542982.285378,-2524985.197185
133.0,1.51953125,-265367.599173,79959.342475,-1636310.772456,27430.418423,-1509677.232465,-1891217.218783,-2299458.062584,-2547462.111409,-3510439.099126,-2468478.020248,-2474126.753107,-2441220.872548,-2445021.563175,21089.675556,-2542932.396285,-2524946.036928
134.0,1.5234375,-264134.319321,78949.222439,-1631588.474701,26620.391204,-1503436.804227,-1885021.31522,-2295081.233392,-2541303.222335,-3504336.536448,-2462274.606499,-2467937.823288,-2435012.630822,-2438885.741101,20451.309735,-2536770.288559,-2518788.220738
135.0,1.52734375,-261734.814851,76603.362155,-1622686.22192,24934.890859,-1493381.201432,-1875133.618728,-2286817.882874,-2531430.009774,-3494690.238797,-2452285.522495,-2458092.505704,-2425155.511517,-2426673.105559,19562.962003,-2527013.483884,-2509025.515202
136.0,1.53125,-265092.940938,79795.191264,-1633347.467583,27311.864771,-1508839.846711,-1890529.500309,-2297101.473463,-2546629.553631,-3509759.963722,-2467601.474238,-2473437.425308,-2440537.982051,-2440186.612628,21376.671955,-2542294.030463,-2524289.432083
137.0,1.53515625,-265482.934175,79940.030568,-1634072.736987,27416.470935,-1509755.552978,-1891403.36411,-2298055.803544,-2547525.947991,-3510597.349476,-2468509.670318,-2474295.195853,-2441396.82548,-2442183.249257,21128.299371,-2543121.223822,-2525142.374652
138.0,1.5390625,-265507.074059,80107.40043,-1634208.993221,27497.473657,-1509755.016536,-1891372.250482,-2298242.485314,-2547530.775968,-3510561.944313,-2468524.154249,-2474269.446644,-2441357.128782,-2442857.556684,21118.643417,-2543085.282217,-2525106.969488
139.0,1.54296875,-265269.430312,80142.269151,-1634278.730664,27549.508518,-1509744.824141,-1891334.16311,-2298056.339986,-2547530.775968,-3510535.658662,-2468532.200877,-2474242.62455,-2441327.624479,-2443326.943317,21420.123746,-2543075.626263,-2525078.001628
140.0,1.546875,-265187.891148,79935.202591,-1634475.604829,27452.948982,-1509748.579234,-1891328.262249,-2298039.710288,-2547536.676828,-3510532.976452,-2468534.346644,-2474231.359271,-2441323.332944,-2443718.54588,21444.26363,-2543071.87117,-2525066.199907
141.0,1.55078125,-265378.328011,79798.946357,-1634812.490322,27349.952143,-1509738.92328,-1891317.533412,-2298410.92806,-2547517.364921,-3510510.445894,-2468512.352528,-2474203.464294,-2441301.338828,-2443912.737836,21110.060347,-2543031.101588,-2525035.086278
142.0,1.5546875,-265475.960431,79942.712777,-1635071.591743,27412.715842,-1509718.538489,-1891290.711318,-2298683.440528,-2547492.688595,-3510475.577173,-2468495.72283,-2474179.32441,-2441264.860781,-2443966.918465,21118.643417,-2542993.550657,-2525000.217557
143.0,1.55859375,-265283.3778,80028.007034,-1635152.058023,27487.817703,-1509692.78928,-1891252.623946,-2298526.799503,-2547471.767363,-3510446.609312,-2468483.384667,-2474150.892991,-2441231.064943,-2444020.562651,21439.435654,-2542968.874332,-2524970.713254
144.0,1.5625,-265180.380962,79848.299008,-1635263.637932,27405.742098,-1509700.835908,-1891255.842597,-2298416.82892,-2547479.277549,-3510453.583056,-2468485.530434,-2474147.67434,-2441236.429362,-2444161.646862,21431.389026,-2542976.384518,-2524973.931906
145.0,1.56640625,-265367.599173,79676.101169,-1635505.573214,27142.349141,-1509707.809652,-1891271.399411,-2298712.944831,-2547482.4962,-3510456.801707,-2468480.166016,-2474147.137898,-2441244.47599,-2444233.530072,21124.007836,-2542967.265006,-2524973.931906
146.0,1.5703125,-265513.511361,79784.462426,-1635701.374495,27293.625747,-1509700.835908,-1891268.18076,-2299012.279393,-2547475.522456,-3510446.07287,-2468477.483806,-2474142.846363,-2441234.283594,-2444174.521467,20952.88288,-2542951.17175,-2524965.348836
147.0,1.57421875,-265362.771197,79915.354242,-1635721.759286,27462.604935,-1509707.27321,-1891264.425667,-2298884.069787,-2547485.714851,-3510447.145754,-2468495.186388,-2474148.747223,-2441232.674269,-2444146.62649,21270.456466,-2542971.020099,-2524971.249696
148.0,1.578125,-265191.646241,79775.342915,-1635737.3161,27418.080261,-1509718.538489,-1891272.472295,-2298692.023598,-2547499.125898,-3510464.311894,-2468512.352528,-2474156.793851,-2441247.694641,-2444216.900375,21612.169935,-2542984.431146,-2524983.051417
149.0,1.58203125,-265327.366033,79569.349238,-1635914.341916,27291.47998,-1509715.85628,-1891275.154504,-2298911.428322,-2547489.469944,-3510462.702568,-2468493.577062,-2474144.99213,-2441245.012432,-2444250.696212,21170.678278,-2542956.536169,-2524973.395464
150.0,1.5859375,-265513.511361,79627.821401,-1636084.393988,27292.016422,-1509709.418977,-1891270.862969,-2299236.512093,-2547474.449572,-3510445.536428,-2468478.55669,-2474135.872619,-2441229.455618,-2444195.4427,20904.603112,-2542934.00561,-2524957.302208
151.0,1.58984375,-265414.806058,79786.071752,-1636086.003314,27393.940377,-1509717.465605,-1891267.107876,-2299161.946674,-2547482.4962,-3510444.463544,-2468494.113504,-2474145.528572,-2441229.455618,-2444096.737396,21109.523905,-2542950.635308,-2524965.348836
152.0,1.59375,-265240.462451,79687.90289,-1636040.942197,27376.237795,-1509720.147815,-1891267.107876,-2298910.89188,-2547487.324177,-3510448.755079,-2468498.405039,-2474141.773479,-2441232.137827,-2444119.804397,21352.532071,-2542971.556541,-2524968.567487
153.0,1.59765625,-265348.823708,79467.961725,-1636149.303454,27126.255885,-1509725.512233,-1891281.591807,-2299040.710812,-2547490.542828,-3510456.265265,-2468488.749086,-2474139.09127,-2441242.330222,-2444158.964653,21157.803673,-2542969.410773,-2524969.640371
154.0,1.6015625,-265554.280943,79474.399027,-1636300.580061,27113.38128,-1509742.678373,-1891308.950342,-2299375.986979,-2547508.24541,-3510469.676312,-2468502.160132,-2474157.866735,-2441258.95992,-2444108.002676,20896.020042,-2542971.556541,-2524984.124301
155.0,1.60546875,-265506.537617,79652.497727,-1636307.017363,27363.899632,-1509754.480094,-1891316.99697,-2299369.549676,-2547522.72934,-3510482.014475,-2468530.591551,-2474175.569317,-2441265.933665,-2444004.469395,21237.19707,-2542983.358262,-2524998.608231
156.0,1.609375,-265279.622707,79602.608633,-1636222.79599,27373.555586,-1509733.558861,-1891288.029109,-2299090.599905,-2547506.099642,-3510465.384777,-2468516.107621,-2474151.429433,-2441245.012432,-2443981.938837,21360.042257,-2542968.874332,-2524978.759882
157.0,1.61328125,-265319.319405,79376.766607,-1636287.705456,27252.319724,-1509703.518117,-1891264.962109,-2299142.098325,-2547472.840246,-3510441.781335,-2468471.582946,-2474116.560711,-2441219.799664,-2444052.212721,21178.188464,-2542936.151378,-2524948.182696
158.0,1.6171875,-265538.724129,79190.084838,-1636426.643899,27191.165351,-1509708.346094,-1891277.300272,-2299477.910933,-2547467.475828,-3510435.344033,-2468459.781225,-2474113.878502,-2441216.044571,-2443999.641418,20845.594507,-2542915.230145,-2524943.891161
159.0,1.62109375,-265549.452966,79092.98886,-1636434.154085,27289.334212,-1509733.02242,-1891293.92997,-2299535.310213,-2547480.350432,-3510440.172009,-2468480.702458,-2474127.289549,-2441223.018315,-2443900.399673,20918.014159,-2542932.932726,-2524954.619998
160.0,1.625,-263324.292102,77415.535142,-1628506.079734,25830.748776,-1499539.017622,-1881176.636359,-2291970.407006,-2537424.747637,-3500498.29489,-2458343.560498,-2464018.042567,-2431101.43317,-2433949.403042,20051.124102,-2532889.668094,-2514908.673156
161.0,1.62890625,-262624.235466,76505.193294,-1624840.572457,25095.823419,-1496607.899261,-1878388.211535,-2288839.73227,-2534562.830277,-3497815.012671,-2455406.004835,-2461245.710998,-2428338.221113,-2428088.239203,19663.813074,-2530160.788317,-2512175.501844
162.0,1.6328125,-265727.551666,79376.766607,-1634145.156639,27146.104234,-1509696.007931,-1891403.36411,-2298002.159357,-2547416.51385,-3510521.711173,-2468372.3412,-2474200.245643,-2441319.041409,-2439998.321533,20904.06667,-2543035.929565,-2525057.080395
163.0,1.63671875,-265771.539899,79569.885679,-1634221.331384,27250.173956,-1509757.698745,-1891423.212459,-2298208.689476,-2547484.641967,-3510532.440011,-2468453.880364,-2474224.921969,-2441328.160921,-2441118.412151,20879.390345,-2543046.658402,-2525081.220279
164.0,1.640625,-265530.141059,79610.118819,-1634249.226361,27304.354585,-1509754.480094,-1891382.979319,-2298016.106846,-2547487.860619,-3510500.78994,-2468467.291411,-2474196.49055,-2441294.901525,-2441821.150997,21176.579139,-2543032.174472,-2525050.106651
165.0,1.64453125,-265431.972198,79406.807352,-1634425.179294,27211.0137,-1509733.02242,-1891344.891947,-2297986.602543,-2547468.012269,-3510469.13987,-2468444.760852,-2474155.184526,-2441260.569246,-2442389.779376,21213.593628,-2542998.915076,-2525006.118418
166.0,1.6484375,-265614.898874,79263.040932,-1634751.335949,27105.871094,-1509729.267327,-1891337.381761,-2298348.164361,-2547455.137665,-3510451.973731,-2468427.594713,-2474131.581084,-2441242.866664,-2442734.711496,20879.926786,-2542960.291262,-2524977.150557
167.0,1.65234375,-265722.723689,79402.515817,-1635016.338231,27163.270374,-1509765.208932,-1891363.667412,-2298632.478551,-2547487.324177,-3510471.285638,-2468468.364295,-2474162.694712,-2441263.251455,-2442870.96773,20847.203833,-2542977.993843,-2524998.07179
168.0,1.65625,-265533.896152,79491.565167,-1635111.288442,27238.372235,-1509778.083536,-1891362.058087,-2298495.685875,-2547506.636084,-3510481.478033,-2468499.477923,-2474172.887107,-2441264.860781,-2442965.917941,21235.587744,-2542991.40489,-2525007.727743
169.0,1.66015625,-265413.733174,79319.903769,-1635237.888722,27170.244118,-1509758.235187,-1891335.235993,-2298381.960199,-2547485.714851,-3510456.801707,-2468474.265155,-2474140.700595,-2441240.184455,-2443149.917501,21199.109697,-2542966.728564,-2524981.442092
170.0,1.6640625,-265586.467455,79141.80507,-1635498.063028,26961.03179,-1509761.453839,-1891344.355505,-2298671.638807,-2547481.423316,-3510456.265265,-2468462.999876,-2474133.190409,-2441241.793781,-2443275.98134,20890.119182,-2542949.562424,-2524973.395464
171.0,1.66796875,-265737.744062,79245.33835,-1635716.931309,26929.918162,-1509778.619978,-1891368.495389,-2298983.311532,-2547504.490316,-3510470.749196,-2468484.993992,-2474156.25741,-2441256.277711,-2443264.179619,20708.801831,-2542957.609052,-2524987.879394
172.0,1.671875,-265591.295432,79378.375933,-1635768.429729,27209.940816,-1509750.188559,-1891329.335133,-2298878.705368,-2547482.4962,-3510434.807591,-2468468.364295,-2474130.5082,-2441226.236966,-2443214.826967,20962.002392,-2542945.270889,-2524960.520859
173.0,1.67578125,-265430.362872,79245.33835,-1635796.324706,27179.36363,-1509744.287699,-1891321.824947,-2298680.758319,-2547478.204665,-3510433.734707,-2468466.218527,-2474118.706479,-2441220.336106,-2443282.955084,21286.01328,-2542950.098866,-2524956.229324
174.0,1.6796875,-265568.764874,79038.808231,-1635969.058987,27053.299791,-1509773.792001,-1891358.302994,-2298885.14267,-2547501.271665,-3510465.921219,-2468483.384667,-2474140.164154,-2441251.449734,-2443382.733271,20996.871113,-2542953.853959,-2524980.90565
175.0,1.68359375,-265757.055969,79089.770209,-1636149.839896,27050.617582,-1509796.859002,-1891384.588645,-2299223.101046,-2547517.901363,-3510480.40515,-2468499.477923,-2474161.085386,-2441268.615874,-2443354.301853,20658.912737,-2542959.75482,-2524995.38958
176.0,1.6875,-265664.251526,79250.702769,-1636168.078919,27153.077978,-1509805.978513,-1891381.906436,-2299173.748395,-2547525.947991,-3510475.577173,-2468512.352528,-2474167.522689,-2441264.324339,-2443246.477037,20853.641135,-2542976.92096,-2524998.07179
177.0,1.69140625,-265456.112082,79164.87207,-1636127.309338,27140.203373,-1509782.375071,-1891354.011459,-2298922.693601,-2547506.636084,-3510453.583056,-2468494.113504,-2474140.700595,-2441240.720897,-2443248.086363,21115.961208,-2542971.556541,-2524979.832766
178.0,1.6953125,-265551.598734,78943.321579,-1636242.644339,27014.675977,-1509772.182676,-1891350.256366,-2299043.393021,-2547491.07927,-3510446.609312,-2468468.900736,-2474120.315805,-2441233.210711,-2443325.333992,21052.124626,-2542945.807331,-2524965.348836
179.0,1.69921875,-265761.883946,78943.321579,-1636403.040457,26983.562348,-1509764.136048,-1891347.574156,-2299384.570048,-2547474.986014,-3510435.880475,-2468453.880364,-2474108.514083,-2441221.945431,-2443294.756805,20679.297528,-2542909.865726,-2524949.792021
180.0,1.703125,-265724.333015,79126.784697,-1636408.404876,26962.104674,-1509785.593723,-1891364.740296,-2299395.298886,-2547500.198782,-3510449.827963,-2468485.530434,-2474134.799735,-2441236.429362,-2443184.249781,20766.201111,-2542938.833587,-2524970.176812
181.0,1.70703125,-265507.610501,79086.015116,-1636325.256386,26983.025906,-1509790.958141,-1891371.71404,-2299115.812673,-2547518.974247,-3510461.629684,-2468502.160132,-2474144.455689,-2441248.767525,-2443163.86499,21057.489044,-2542973.702308,-2524985.197185
182.0,1.7109375,-265553.208059,78858.563764,-1636392.848062,27022.722605,-1509784.520839,-1891371.71404,-2299146.389859,-2547508.24541,-3510458.947475,-2468486.066876,-2474132.117526,-2441245.548874,-2443249.159247,20947.518462,-2542963.509913,-2524976.077673
183.0,1.71484375,-265771.539899,78805.992461,-1636541.978901,26962.104674,-1509760.380955,-1891352.402133,-2299482.73891,-2547475.522456,-3510427.833847,-2468446.370178,-2474103.149665,-2441217.653897,-2443225.019363,20616.53383,-2542918.448796,-2524943.891161
184.0,1.71875,-265792.461132,78870.901927,-1636567.191668,27057.054884,-1509777.547095,-1891363.13097,-2299556.767888,-2547485.178409,-3510433.198265,-2468465.145643,-2474116.560711,-2441221.40899,-2443099.491966,20759.763808,-2542931.323401,-2524951.937789
185.0,1.72265625,-265255.482823,78264.722617,-1635118.798628,26853.743417,-1507996.560096,-1889588.044833,-2298021.471265,-2545720.284667,-3508681.71557,-2466695.960366,-2472335.573713,-2439440.421991,-2441400.044131,20928.742996,-2541166.429659,-2523185.971163
186.0,1.7265625,-261957.438225,75001.546741,-1622723.236409,24339.976828,-1492516.993584,-1874280.139718,-2286555.026359,-2530483.189879,-3493696.212017,-2451301.688111,-2457053.417808,-2424146.464365,-2425479.522405,18968.047973,-2525965.276476,-2508008.957864
187.0,1.73046875,-264957.757587,77784.607146,-1631154.493231,26177.290222,-1505410.910298,-1887187.467478,-2295018.469693,-2543164.675613,-3506340.683262,-2464060.421474,-2469921.585312,-2437043.59973,-2434706.858958,20158.948917,-2538774.971816,-2520808.460809
188.0,1.734375,-266022.058251,79034.516696,-1634323.255339,27019.503953,-1509835.482816,-1891543.375438,-2298220.491197,-2547506.099642,-3510571.063825,-2468457.099015,-2474256.035597,-2441372.149154,-2439676.456413,20639.064388,-2543075.089821,-2525120.916977
189.0,1.73828125,-265776.904318,79085.478674,-1634285.167967,27080.121884,-1509808.124281,-1891475.247321,-2298011.278869,-2547493.225037,-3510512.591662,-2468451.734597,-2474200.245643,-2441305.093921,-2440585.188935,20934.643857,-2543028.955821,-2525063.517697
190.0,1.7421875,-265668.006619,78884.849415,-1634435.908131,26990.536093,-1509796.32256,-1891441.987925,-2297954.416031,-2547485.714851,-3510484.160243,-2468439.932876,-2474161.621828,-2441276.662502,-2441324.405828,20985.605834,-2542999.451518,-2525024.357441
191.0,1.74609375,-265845.032435,78734.109251,-1634759.382577,26882.711277,-1509828.509072,-1891467.737134,-2298306.858338,-2547513.073386,-3510499.180615,-2468461.926992,-2474175.032875,-2441293.828642,-2441803.984857,20657.303412,-2542994.623541,-2525032.404069
192.0,1.75,-265958.758111,78865.537508,-1635042.087441,26935.28258,-1509827.436188,-1891457.544739,-2298604.583574,-2547508.781851,-3510479.868708,-2468467.291411,-2474166.986247,-2441276.662502,-2442016.415836,20540.895527,-2542973.702308,-2525014.165046
193.0,1.75390625,-265777.977202,78962.097044,-1635156.349558,27014.675977,-1509829.045514,-1891441.987925,-2298474.764642,-2547512.000503,-3510469.13987,-2468480.702458,-2474161.621828,-2441264.860781,-2442141.943233,20823.063949,-2542986.040471,-2525008.264185
194.0,1.7578125,-265645.476061,78796.872949,-1635289.387141,26951.375836,-1509808.660723,-1891416.238715,-2298353.52878,-2547490.006386,-3510450.364405,-2468460.854108,-2474131.044642,-2441240.720897,-2442362.957282,21067.68144,-2542969.410773,-2524981.442092
195.0,1.76171875,-265811.236597,78616.09204,-1635554.389424,26833.358626,-1509815.634467,-1891425.894669,-2298642.134505,-2547488.933502,-3510454.65594,-2468454.416806,-2474126.216665,-2441245.548874,-2442543.20175,20826.2826,-2542940.979354,-2524977.150557
196.0,1.765625,-265970.559832,78712.651576,-1635790.960287,26798.489904,-1509826.363304,-1891436.087064,-2298970.436927,-2547495.370805,-3510455.192382,-2468463.536318,-2474132.653967,-2441247.158199,-2442572.169611,20492.615758,-2542929.714075,-2524978.22344
197.0,1.76953125,-265836.985807,78852.126462,-1635844.068032,26765.76695,-1509846.748095,-1891452.716762,-2298881.924019,-2547528.093759,-3510472.894963,-2468501.087248,-2474160.012503,-2441264.324339,-2442535.155122,20736.160366,-2542969.947215,-2525002.899766
198.0,1.7734375,-265673.90748,78723.916855,-1635880.009637,26940.110557,-1509832.800607,-1891437.159948,-2298687.195621,-2547519.510689,-3510463.775452,-2468489.285527,-2474142.846363,-2441252.522618,-2442612.939192,20943.763369,-2542972.092983,-2524991.098045
199.0,1.77734375,-265809.09083,78516.850295,-1636066.691407,26839.795928,-1509813.4887,-1891426.967553,-2298892.652856,-2547494.297921,-3510444.999986,-2468451.734597,-2474114.414944,-2441232.674269,-2442729.347078,20708.801831,-2542938.833587,-2524964.275952
200.0,1.78125,-266003.819228,78558.69276,-1636256.055386,26833.358626,-1509815.634467,-1891428.040436,-2299236.512093,-2547485.178409,-3510435.880475,-2468447.443062,-2474111.196293,-2441226.773408,-2442726.128426,20451.846177,-2542922.740331,-2524955.15644
201.0,1.78515625,-265920.134296,78727.135507,-1636275.367293,26936.891906,-1509824.753979,-1891428.576878,-2299198.961162,-2547496.98013,-3510439.099126,-2468470.510062,-2474124.070898,-2441229.455618,-2442639.224844,20780.685041,-2542938.833587,-2524963.203068
202.0,1.7890625,-265703.948224,78647.205668,-1636234.061269,26928.845278,-1509807.051397,-1891404.436994,-2298946.833485,-2547483.569084,-3510429.979614,-2468460.317667,-2474104.222549,-2441213.898803,-2442678.921542,21041.93223,-2542925.42254,-2524951.937789
203.0,1.79296875,-265775.831434,78425.118735,-1636345.641177,26808.145858,-1509807.587839,-1891410.874297,-2299058.949835,-2547480.350432,-3510438.562684,-2468449.052387,-2474097.785246,-2441219.799664,-2442792.647218,20739.379017,-2542917.375912,-2524950.328463
204.0,1.796875,-265983.970879,78420.290759,-1636506.573737,26774.886462,-1509809.733607,-1891416.775157,-2299402.809072,-2547472.303804,-3510429.443172,-2468437.787108,-2474093.493711,-2441213.898803,-2442791.574334,20437.362246,-2542895.918238,-2524941.208952
205.0,1.80078125,-265953.930134,78606.436086,-1636525.885645,26878.419742,-1509820.998886,-1891421.066692,-2299428.02184,-2547483.032642,-3510430.516056,-2468457.099015,-2474105.831874,-2441213.898803,-2442686.96817,20558.598108,-2542912.547936,-2524949.25558
