Timestamp,Fp1,Fp2,F3,F4,T5,T6,O1,O2,F7,F8,C3,C4,T3,T4,P3,P4
0.0,-1562.655158,-730650.452453,606527.4604,-821090.259682,-977099.892747,-980232.71325,-1207875.038132,0.0,-3121768.727513,-3128944.173925,-2869811.638571,-2852681.976876,-197123.074189,-2977081.772933,-2571850.368005,0.0
0.00390625,-287659.977396,-2577.066729,-742517.082991,547050.541288,-828583.816121,-986913.023819,-994013.904812,-1225548.65188,-3717934.276811,-3110530.270401,-3117688.014232,-2860167.486688,-2843423.526695,-175103.744877,-2962561.364479,-2567615.159466
0.0078125,-287606.869651,-2244.472771,-742553.024596,547205.036545,-828577.915261,-986900.685656,-994075.059184,-1225554.55274,-3717919.792881,-3110538.317029,-3117686.404906,-2860148.17478,-2843491.11837,-174663.326104,-2962551.708526,-2567608.722163
0.01171875,-287533.913557,-2341.032307,-742509.036363,547128.8618,-828573.623726,-986894.248354,-993906.079996,-1225558.844275,-3717913.355579,-3110527.05175,-3117666.556557,-2860132.081524,-2843186.955832,-174353.799147,-2962513.621153,-2567599.602652
0.015625,-287579.511115,-2649.486381,-742519.228759,546904.092658,-828580.061028,-986908.732284,-993903.397787,-1225564.208694,-3717918.183555,-3110505.594075,-3117647.781092,-2860131.008641,-2843155.842204,-174871.465548,-2962480.898199,-2567591.019582
0.01953125,-287637.983279,-2668.261846,-742593.794178,546722.238865,-828587.571214,-986919.997563,-994124.411836,-1225574.937531,-3717921.402207,-3110502.375424,-3117648.317534,-2860132.081524,-2843479.316649,-175088.724505,-2962471.242246,-2567586.728047
0.0234375,-287614.379837,-2603.888822,-742632.417993,546974.366543,-828606.346679,-986937.163703,-994223.653582,-1225606.587601,-3717929.448835,-3110528.124634,-3117672.457418,-2860138.518827,-2843606.989814,-174884.876595,-2962489.481269,-2567602.284861
0.02734375,-287537.66865,-2342.641633,-742583.601783,547133.689777,-828607.419563,-986935.554378,-994068.08544,-1225615.707113,-3717919.792881,-3110516.859355,-3117657.973487,-2860125.10778,-2843326.967159,-174677.273593,-2962490.017711,-2567599.602652
0.03125,-287551.079697,-2516.98524,-742570.727178,546912.139286,-828622.439935,-986957.548494,-994010.149719,-1225631.800369,-3717932.131044,-3110506.130517,-3117649.390417,-2860132.081524,-2843203.58553,-174784.025524,-2962489.481269,-2567603.357745
0.03515625,-287632.61886,-2571.165868,-742638.855295,546813.433983,-828632.095889,-986972.032424,-994212.388302,-1225640.383439,-3717935.886137,-3110497.011006,-3117645.098882,-2860132.081524,-2843488.972603,-174980.899689,-2962476.070222,-2567596.384
0.0390625,-287623.499349,-2236.426143,-742701.618993,546952.372426,-828634.241657,-986970.959541,-994357.764048,-1225652.18516,-3717927.839509,-3110509.349168,-3117653.681952,-2860126.180664,-2843696.575605,-174844.643455,-2962476.606664,-2567598.529768
0.04296875,-287532.840673,-2155.959863,-742675.333342,546977.048752,-828645.506936,-986972.568866,-994222.580698,-1225671.497067,-3717924.620858,-3110512.56782,-3117653.681952,-2860121.352687,-2843460.541184,-174600.562406,-2962487.871943,-2567608.722163
0.046875,-287539.814417,-2465.48682,-741466.729816,546787.684773,-825254.657895,-983612.297012,-991396.068501,-1222302.642143,-3714547.182864,-3107078.803429,-3114225.818423,-2856706.363762,-2840863.089664,-174645.087081,-2959094.340693,-2564213.581588
0.05078125,-287722.741094,-2618.372752,-738811.342575,546657.865841,-818521.239581,-977006.015421,-985707.102502,-1215604.628993,-3707887.793528,-3100270.283254,-3107511.712016,-2849997.621774,-2835845.748883,-174778.124664,-2952426.368287,-2557493.574321
0.0546875,-287740.443676,-2275.049958,-742168.395778,546823.626378,-827973.345277,-986414.669325,-993137.358801,-1225006.309152,-3717319.514432,-3109764.767857,-3117033.555154,-2859520.537796,-2842441.838079,-174769.005152,-2961874.182448,-2566929.58676
0.05859375,-287621.890023,-2103.38856,-742410.867502,546920.722356,-828676.084122,-987068.591961,-993577.241132,-1225725.677696,-3717983.093021,-3110485.209284,-3117704.64393,-2860177.142641,-2842683.773361,-174537.798707,-2962540.979688,-2567645.20021
0.0625,-287560.73565,-2381.265447,-742365.806385,546732.967703,-828678.766332,-987057.326681,-993440.448456,-1225737.479417,-3717964.317556,-3110471.261796,-3117668.165883,-2860149.784106,-2842406.969357,-174537.798707,-2962509.329618,-2567646.273094
0.06640625,-287610.088302,-2583.504031,-742419.987013,546552.186793,-828680.375657,-987058.399565,-993597.625923,-1225744.453161,-3717957.880254,-3110455.704982,-3117640.807347,-2860134.763734,-2842595.260453,-174763.640733,-2962475.533781,-2567635.544257
0.0703125,-287619.744256,-2343.714517,-742502.062619,546620.31491,-828665.891727,-987033.723239,-993847.607833,-1225738.015859,-3717928.912393,-3110446.049028,-3117619.886115,-2860103.650105,-2842937.510364,-174770.614477,-2962442.274385,-2567612.477256
0.07421875,-287542.496627,-2098.024142,-742507.96348,546731.358377,-828659.454424,-987013.338448,-993839.561205,-1225740.161626,-3717904.236067,-3110444.976144,-3117610.766603,-2860078.437338,-2842891.912805,-174502.393544,-2962434.227757,-2567604.430628
0.078125,-287497.971952,-2324.939051,-742470.412549,546576.863119,-828651.944238,-987003.146053,-993694.185459,-1225734.797208,-3717887.069927,-3110415.471842,-3117578.580091,-2860056.979663,-2842638.175802,-174438.556962,-2962414.91585,-2567586.728047
0.08203125,-287559.126325,-2580.821822,-742513.327898,546371.942326,-828665.355285,-987022.994402,-993796.645856,-1225749.281138,-3717899.40809,-3110404.743004,-3117568.924137,-2860061.80764,-2842774.432036,-174649.378616,-2962406.33278,-2567582.436512
0.0859375,-287594.531488,-2484.798728,-742597.012829,546296.304023,-828677.157006,-987035.869007,-994045.01844,-1225767.520162,-3717904.236067,-3110412.789632,-3117575.897881,-2860061.80764,-2843131.70232,-174721.798268,-2962402.041245,-2567583.509396
0.08984375,-287552.15258,-2458.513076,-742615.788295,546491.568862,-828670.183262,-987025.676611,-994076.66851,-1225770.202371,-3717883.314834,-3110411.716749,-3117567.314812,-2860039.277081,-2843153.696436,-174344.679635,-2962390.775966,-2567574.926326
0.09375,-287499.044835,-2299.726284,-742561.607666,546560.769863,-828678.22989,-987032.650355,-993910.371531,-1225784.149859,-3717891.361462,-3110411.716749,-3117554.440207,-2860034.985546,-2842855.9712,-173987.945794,-2962368.781849,-2567575.462768
0.09765625,-287560.199208,-2487.480937,-742583.601783,546340.828698,-828692.177378,-987056.790239,-993952.750439,-1225797.024464,-3717909.064044,-3110400.987911,-3117546.930021,-2860043.568616,-2842895.667898,-174517.413916,-2962341.423314,-2567575.462768
0.1015625,-287606.869651,-2402.723122,-742668.89604,546315.61593,-828708.807076,-987076.638589,-994194.149279,-1225816.336371,-3717916.037788,-3110406.35233,-3117555.513091,-2860048.396593,-2843242.745786,-174734.672872,-2962336.058895,-2567577.072093
0.10546875,-287559.126325,-2068.519839,-742707.519854,546467.96542,-828725.973216,-987084.685217,-994270.860466,-1225842.622023,-3717918.719997,-3110429.955772,-3117574.288556,-2860048.933035,-2843330.18581,-174507.757963,-2962352.688593,-2567589.946698
0.109375,-287487.779556,-2148.449677,-742662.995179,546401.446629,-828728.118983,-987083.075891,-994109.391464,-1225853.35086,-3717914.428462,-3110421.909144,-3117561.950393,-2860041.959291,-2843032.997016,-174339.315216,-2962355.907244,-2567591.019582
0.11328125,-287524.794045,-2469.778355,-742668.359598,546175.068161,-828709.343518,-987072.347054,-994092.225324,-1225833.502511,-3717892.970788,-3110377.384469,-3117519.035044,-2860016.746523,-2842985.790132,-174485.227404,-2962318.892755,-2567558.83307
0.1171875,-287580.583999,-2464.950379,-742742.388575,546108.012928,-828720.072355,-987087.367426,-994313.239373,-1225847.986442,-3717899.40809,-3110373.092934,-3117520.644369,-2860019.428732,-2843309.264578,-174663.862546,-2962310.309686,-2567558.83307
0.12109375,-287548.397487,-2117.872491,-742793.350553,546241.050511,-828735.092728,-987094.34117,-994429.647258,-1225873.735651,-3717901.017416,-3110394.550609,-3117537.810509,-2860020.501616,-2843470.197138,-174484.690962,-2962323.18429,-2567569.561907
0.125,-287477.587161,-2109.825863,-742755.799622,546089.237462,-828758.159728,-987113.116635,-994272.469791,-1225909.677256,-3717913.89202,-3110410.107423,-3117551.221556,-2860032.303337,-2843210.022832,-174272.259983,-2962344.641965,-2567591.556024
0.12890625,-287500.117719,-2435.446076,-742739.706366,546086.555253,-828744.212239,-987112.043752,-994197.904372,-1225902.703512,-3717902.626741,-3110371.483609,-3117515.279951,-2860014.600756,-2843080.740342,-174373.647496,-2962317.819872,-2567570.098349
0.1328125,-287566.636511,-2513.230147,-742806.761599,546051.15009,-828723.291006,-987099.169147,-994390.487002,-1225884.464489,-3717882.24195,-3110338.760655,-3117483.093439,-2859991.533755,-2843367.200299,-174584.46915,-2962277.05029,-2567535.766069
0.13671875,-287556.444115,-2251.446515,-742868.452414,546176.677487,-828728.655425,-987099.169147,-994543.372934,-1225900.557745,-3717873.122439,-3110345.734399,-3117491.140067,-2859985.096453,-2843589.287232,-174468.061265,-2962279.732499,-2567537.375395
0.140625,-287475.977835,-2349.078935,-742834.656576,546209.936882,-828743.675797,-987108.825101,-994416.772654,-1225918.260326,-3717868.830904,-3110348.95305,-3117490.603625,-2859978.122709,-2843362.908764,-174222.370889,-2962290.461336,-2567545.422023
0.14453125,-287488.315998,-2381.801889,-742800.324297,546005.552531,-828760.841937,-987128.67345,-994289.635931,-1225931.134931,-3717874.195322,-3110332.323352,-3117478.265462,-2859981.34136,-2843139.748948,-174262.604029,-2962288.852011,-2567545.958465
0.1484375,-287592.922162,-2492.845356,-740972.130415,545878.415808,-823331.513802,-981751.380176,-990065.692671,-1220531.311098,-3712473.835048,-3104856.861217,-3112018.896582,-2854526.264015,-2839480.678973,-174463.76973,-2956857.378108,-2562117.703213
0.15234375,-287695.382559,-2226.233748,-739617.614701,545974.975345,-820301.153696,-978820.261815,-987304.626382,-1217519.726458,-3709504.092873,-3101783.049319,-3109043.253546,-2851543.110793,-2837048.98799,-174168.726703,-2953897.828328,-2559102.363479
0.15625,-287603.651,-1993.954419,-742529.957596,546131.61637,-828661.06375,-987119.553938,-993705.98718,-1225843.158465,-3717837.717275,-3110192.312025,-3117443.933182,-2859944.326871,-2842572.193452,-174102.207911,-2962229.306964,-2567457.445557
0.16015625,-287528.549138,-2264.857562,-742514.937224,545965.319391,-828765.669914,-987194.655799,-993607.818318,-1225964.930769,-3717917.110672,-3110291.55377,-3117504.014671,-2860010.845662,-2842300.753868,-174198.231005,-2962287.779127,-2567570.098349
0.1640625,-287573.073813,-2492.845356,-742553.561038,545776.491854,-828784.445379,-987205.921078,-993730.127064,-1225990.143536,-3717918.719997,-3110295.308864,-3117489.530741,-2860006.017686,-2842433.791451,-174431.583218,-2962265.248569,-2567579.217861
0.16796875,-287584.875534,-2278.805051,-742625.98069,545833.891134,-828796.783542,-987206.45752,-993968.843695,-1226008.919002,-3717911.746253,-3110309.256352,-3117491.140067,-2859994.752406,-2842749.75571,-174463.76973,-2962254.519731,-2567582.972954
0.171875,-287509.237231,-2023.458722,-742629.199341,545948.153251,-828797.319984,-987189.291381,-993970.989462,-1226020.184281,-3717891.897904,-3110316.766538,-3117484.166322,-2859973.831174,-2842703.085268,-174201.986099,-2962248.082429,-2567579.217861
0.17578125,-287467.394765,-2239.644794,-742579.84669,545800.631738,-828809.121705,-987195.728683,-993824.540833,-1226036.277537,-3717891.897904,-3110307.110585,-3117467.000183,-2859966.857429,-2842434.327893,-174131.175772,-2962245.936661,-2567582.436512
0.1796875,-287529.622022,-2510.011495,-742615.251853,545590.346526,-828811.267473,-987206.45752,-993923.246136,-1226038.959746,-3717895.116555,-3110286.725794,-3117444.469624,-2859962.565894,-2842559.318848,-174341.460984,-2962224.478987,-2567570.098349
0.18359375,-287559.662766,-2360.880656,-742695.718133,545606.439782,-828790.882682,-987185.536287,-994183.420442,-1226021.793606,-3717865.612252,-3110259.9037,-3117418.183973,-2859930.379382,-2842938.046806,-174434.265427,-2962184.782289,-2567536.302511
0.1875,-287495.289742,-2048.135048,-742721.467343,545748.060435,-828769.961449,-987154.422659,-994234.918861,-1226011.601211,-3717829.670647,-3110246.492654,-3117399.944949,-2859895.510661,-2842996.518969,-174184.819959,-2962165.470381,-2567512.699069
0.19140625,-287418.578555,-2189.755701,-742672.651133,545637.016968,-828772.643658,-987158.714194,-994071.840533,-1226024.475816,-3717826.988438,-3110234.154491,-3117386.533902,-2859891.755568,-2842720.78785,-174055.001027,-2962166.543265,-2567511.089744
0.1953125,-287481.342254,-2498.746216,-742690.890156,545283.501778,-828808.048821,-987202.165985,-994106.709255,-1226062.563188,-3717860.247834,-3110241.664677,-3117398.335624,-2859919.114103,-2842756.729455,-174240.073471,-2962181.563637,-2567530.401651
0.19921875,-287542.496627,-2492.308914,-742772.42932,545403.128314,-828810.194589,-987211.821939,-994351.863188,-1226073.292026,-3717860.247834,-3110240.055351,-3117396.189856,-2859915.895452,-2843115.609064,-174388.667868,-2962167.079707,-2567525.037232
0.203125,-287504.945696,-2438.664727,-742808.907367,545663.839062,-828803.757287,-987196.265125,-994443.058305,-1226070.609816,-3717836.644392,-3110236.8367,-3117385.461019,-2859888.536917,-2843238.454251,-174138.149516,-2962155.277986,-2567510.553302
0.20703125,-287443.791323,-2205.312515,-742761.164041,545604.830456,-828838.626008,-987224.160102,-994282.125745,-1226107.624305,-3717868.830904,-3110262.049468,-3117404.236484,-2859907.848824,-2842945.02055,-173682.710371,-2962170.8348,-2567540.057604
0.2109375,-287471.6863,-2398.968029,-742764.919134,545374.160454,-828838.626008,-987232.743172,-994255.303652,-1226109.233631,-3717868.294462,-3110238.982468,-3117382.242368,-2859902.484405,-2842874.210223,-174027.10605,-2962128.455893,-2567528.792325
0.21484375,-287531.231347,-2416.134169,-742843.239646,545293.157732,-828839.16245,-987239.180474,-994474.708375,-1226112.452282,-3717865.075811,-3110226.107863,-3117370.440646,-2859897.119987,-2843191.247367,-174384.912775,-2962105.388892,-2567516.454162
0.21875,-287504.409254,-2074.957141,-742898.493159,545440.142803,-828838.626008,-987232.743172,-994605.600191,-1226121.571794,-3717852.737648,-3110231.472281,-3117372.586414,-2859882.636056,-2843364.51809,-174223.980215,-2962101.633799,-2567511.089744
0.22265625,-287426.625183,-2049.744374,-742865.233763,545435.851268,-828822.532752,-987212.358381,-994467.198189,-1226114.061608,-3717825.915554,-3110208.941723,-3117344.691437,-2859850.985986,-2843107.025994,-174007.257701,-2962083.931218,-2567492.314278
0.2265625,-287443.791323,-2377.510354,-742846.458298,545160.656591,-828826.824287,-987222.550776,-994384.586142,-1226119.426026,-3717826.988438,-3110184.801839,-3117325.37953,-2859847.230893,-2842949.312085,-174101.135028,-2962074.275264,-2567485.876976
0.23046875,-287513.528766,-2478.897867,-742913.513531,544997.041821,-828826.287845,-987234.888939,-994568.04926,-1226126.936212,-3717827.52488,-3110171.390792,-3117315.187134,-2859847.767335,-2843213.241483,-174320.003309,-2962056.036241,-2567476.221022
0.234375,-287506.555022,-2163.470049,-742977.886555,545309.78743,-828831.115822,-987234.888939,-994734.882681,-1226140.883701,-3717822.696903,-3110184.265397,-3117324.843088,-2859842.402916,-2843448.739463,-174225.053099,-2962057.645566,-2567478.36679
0.23828125,-287426.625183,-2041.161304,-742951.600903,545367.723151,-828827.897171,-987222.550776,-994620.620563,-1226147.857445,-3717808.212973,-3110174.073002,-3117311.432041,-2859823.627451,-2843243.282228,-173978.28984,-2962057.109124,-2567473.002371
0.2421875,-287420.724323,-2339.959424,-742916.19574,545164.411684,-828835.943799,-987233.279614,-994489.728748,-1226157.513399,-3717810.895182,-3110155.297536,-3117295.338785,-2859820.945242,-2843003.492713,-174011.012794,-2962052.817589,-2567471.929487
0.24609375,-287489.925324,-2508.938612,-742730.050412,545004.552007,-828132.668511,-986543.951815,-994058.429487,-1225460.675414,-3717110.838546,-3109428.418807,-3116573.824474,-2859108.014,-2842691.819989,-174237.927704,-2961328.084627,-2566756.852479
0.25,-287514.065208,-2356.05268,-739218.501952,545079.117427,-818664.46956,-977180.895469,-986380.873487,-1216049.875742,-3707692.528688,-3099901.21125,-3107094.896685,-2849611.38363,-2835935.334675,-174054.464585,-2951903.873909,-2557307.428993
0.25390625,-287550.543255,-2251.446515,-741430.788211,545209.4728,-825523.951712,-984053.788668,-991352.080268,-1222869.661196,-3714567.567655,-3106766.594263,-3114040.745978,-2856562.0609,-2840192.000889,-173759.958,-2958808.417178,-2564161.010285
0.2578125,-287506.01858,-2235.353259,-742628.126458,545101.647985,-828904.071916,-987381.874011,-993820.78574,-1226239.052563,-3717909.600486,-3110152.615327,-3117388.143228,-2859919.114103,-2842183.273099,-173942.884677,-2962130.60166,-2567537.911837
0.26171875,-287565.563627,-2458.513076,-742662.995179,544900.482285,-828898.707497,-987362.025662,-993920.563927,-1226239.589004,-3717881.169067,-3110131.157652,-3117338.254134,-2859878.344521,-2842278.759751,-174188.575052,-2962071.593055,-2567523.964348
0.265625,-287581.656883,-2263.248237,-742742.388575,544941.251867,-828917.482962,-987366.317197,-994165.181418,-1226268.556865,-3717883.314834,-3110155.297536,-3117344.154995,-2859875.662312,-2842598.479104,-174246.510773,-2962062.473543,-2567537.911837
0.26953125,-287505.482138,-1995.027303,-742757.94539,545062.487729,-828904.608358,-987334.130685,-994183.420442,-1226265.338214,-3717850.59188,-3110152.615327,-3117323.770204,-2859838.111381,-2842575.948545,-173991.164445,-2962038.870101,-2567525.573674
0.2734375,-287432.526044,-2197.802329,-742712.347831,544920.867076,-828883.150683,-987308.381475,-994041.799789,-1226250.854284,-3717818.94181,-3110113.455071,-3117276.56332,-2859801.633334,-2842305.581845,-173911.234607,-2962006.147147,-2567494.996487
0.27734375,-287480.26937,-2483.725844,-742745.070785,544651.036817,-828899.780381,-987332.521359,-994129.776255,-1226270.702633,-3717832.889299,-3110104.872001,-3117269.589575,-2859809.679962,-2842401.068497,-174126.884237,-2961998.636961,-2567497.142255
0.28125,-287517.820301,-2359.271331,-742830.365042,544614.022328,-828916.410079,-987352.90615,-994386.731909,-1226298.59761,-3717843.081694,-3110120.428815,-3117280.854855,-2859819.872358,-2842763.166757,-174241.682797,-2961998.100519,-2567505.188883
0.28515625,-287464.176114,-2044.916397,-742864.697321,544946.079844,-828894.952404,-987324.474731,-994451.641375,-1226287.868772,-3717808.749415,-3110110.236419,-3117262.615831,-2859783.394311,-2842830.758432,-174006.721259,-2961979.861495,-2567482.658325
0.2890625,-287411.604811,-2173.126003,-742819.636204,544864.004238,-828895.488846,-987318.037429,-994293.927466,-1226291.087424,-3717796.411252,-3110090.38807,-3117241.694598,-2859768.373939,-2842555.027313,-173873.683676,-2961971.814867,-2567473.538813
0.29296875,-287466.321882,-2490.699588,-742836.265902,544629.579142,-828894.952404,-987327.15694,-994317.530908,-1226294.842517,-3717795.338368,-3110065.711745,-3117217.554714,-2859763.545962,-2842565.75615,-174056.073911,-2961950.893635,-2567460.127766
0.296875,-287519.429626,-2447.784239,-742916.732182,544579.153607,-828879.932032,-987316.428103,-994557.856865,-1226283.040796,-3717775.490019,-3110041.571861,-3117192.341947,-2859739.94252,-2842910.68827,-174222.907331,-2961918.707123,-2567431.696347
0.30078125,-287479.732928,-2104.461444,-742959.647531,544732.039539,-828902.999032,-987330.375592,-994654.952843,-1226317.373075,-3717786.755298,-3110073.221931,-3117219.700482,-2859748.52559,-2843035.679225,-174022.278073,-2961940.701239,-2567452.081138
0.3046875,-287404.631067,-2146.30391,-742917.805066,544687.514864,-828906.217683,-987328.229824,-994499.384701,-1226325.956145,-3717777.099344,-3110062.493093,-3117208.435203,-2859738.869636,-2842757.802338,-173837.742071,-2961940.701239,-2567452.61758
0.30859375,-287437.354021,-2472.460565,-742916.19574,544456.844861,-828916.410079,-987342.177313,-994456.469352,-1226335.075657,-3717782.463763,-3110042.108302,-3117190.732621,-2859739.94252,-2842658.560593,-173967.024561,-2961931.045286,-2567446.180278
0.3125,-287497.43551,-2520.203891,-742989.151834,544347.947162,-828902.46259,-987336.276452,-994665.68168,-1226323.273936,-3717767.979833,-3110014.213325,-3117165.519853,-2859719.021287,-2842960.040922,-174165.508052,-2961897.249448,-2567418.821742
0.31640625,-287477.050719,-2435.982518,-743044.405346,544375.305697,-828916.410079,-987343.786638,-994801.401472,-1226346.877378,-3717765.297623,-3110031.379465,-3117180.540226,-2859717.411961,-2843149.404901,-174013.695003,-2961904.223192,-2567425.259045
0.3203125,-287408.38616,-2258.956702,-743005.24509,544573.789188,-828945.914381,-987370.608732,-994660.853703,-1226385.501192,-3717788.364624,-3110059.274442,-3117198.242807,-2859732.968775,-2842891.912805,-173579.713533,-2961927.826634,-2567452.081138
0.32421875,-287423.406532,-2365.172191,-742984.323857,544413.929512,-828957.716102,-987391.529964,-994564.294167,-1226399.448681,-3717804.45788,-3110051.764256,-3117188.586854,-2859738.869636,-2842711.131896,-173653.742511,-2961901.004541,-2567454.763347
0.328125,-287489.925324,-2477.824983,-743052.988416,544277.673278,-828968.981382,-987412.987639,-994738.637774,-1226412.859727,-3717813.577391,-3110045.326954,-3117187.51397,-2859745.84338,-2842965.941783,-174137.613074,-2961882.765518,-2567452.081138
0.33203125,-287482.951579,-2172.053119,-743122.189417,544395.154046,-828966.835614,-987403.868127,-994911.372055,-1226416.614821,-3717803.384996,-3110047.472721,-3117186.441086,-2859732.432334,-2843219.142344,-174070.021399,-2961873.646006,-2567446.180278
0.3359375,-287404.094625,-2032.578234,-743104.486836,544450.944001,-828938.940637,-987367.926522,-994807.838775,-1226398.375797,-3717764.22474,-3110019.577744,-3117152.645248,-2859689.516984,-2843030.314807,-173818.430164,-2961847.360354,-2567419.358184
0.33984375,-287401.412416,-2322.256842,-743065.326579,544252.996952,-828953.424567,-987388.847755,-994661.390145,-1226417.687704,-3717772.271368,-3110007.776023,-3117144.062179,-2859694.881403,-2842777.114246,-173835.596303,-2961847.896796,-2567423.113277
0.34375,-287472.222742,-2508.40217,-743116.288557,543979.4116,-828963.080521,-987409.768988,-994786.917542,-1226433.244518,-3717784.609531,-3109995.974302,-3117140.843527,-2859704.537356,-2842966.478225,-174064.656981,-2961840.923052,-2567422.576835
0.34765625,-287515.674533,-2277.732167,-741788.058494,544137.66195,-824867.346867,-983345.685404,-991691.111528,-1222371.843144,-3713703.359807,-3105887.902485,-3113032.77171,-2855582.518051,-2840347.56903,-174050.709492,-2957750.553817,-2563332.2076
0.3515625,-287560.73565,-2205.312515,-739580.600212,544506.733955,-819470.741686,-978053.686387,-986838.994841,-1217010.106684,-3708365.226789,-3100436.580233,-3107672.644576,-2850208.443428,-2835911.731233,-173582.932184,-2952433.342032,-2557958.669419
0.35546875,-287481.342254,-2278.268609,-742646.901923,544300.740278,-828591.862749,-987130.282775,-993681.310854,-1226078.656444,-3717467.572387,-3109573.258111,-3116829.707245,-2859389.645981,-2841760.020466,-173671.981534,-2961528.713885,-2567062.087901
0.359375,-287525.866929,-2479.970751,-742829.292158,544096.355927,-829017.797591,-987528.859082,-994065.403231,-1226512.637915,-3717863.466485,-3109988.464116,-3117206.289435,-2859776.420567,-2842083.494912,-174000.820398,-2961891.885029,-2567482.658325
0.36328125,-287550.006813,-2297.044074,-742903.321135,544130.688206,-829002.240777,-987494.526803,-994303.046978,-1226506.200612,-3717825.915554,-3109979.344604,-3117173.030039,-2859732.968775,-2842390.339659,-174068.412074,-2961841.459494,-2567463.882859
0.3671875,-287470.613417,-2014.875652,-742916.19574,544257.824929,-828986.147521,-987460.194523,-994326.113978,-1226502.981961,-3717790.510391,-3109975.589511,-3117148.890155,-2859692.199194,-2842374.246403,-173813.602187,-2961816.783168,-2567450.471813
0.37109375,-287395.511555,-2198.338771,-742871.671065,544128.542439,-828983.465312,-987448.392802,-994168.400069,-1226507.273496,-3717773.880693,-3109958.423371,-3117117.776527,-2859670.741519,-2842094.223749,-173714.360441,-2961798.544144,-2567441.352301
0.375,-287448.082858,-2492.845356,-742903.857577,543908.064831,-828995.267033,-987467.704709,-994238.137512,-1226521.220985,-3717781.927321,-3109945.012324,-3117103.829039,-2859673.423728,-2842184.882424,-173915.526142,-2961784.060214,-2567437.060766
0.37890625,-287492.071091,-2386.629866,-742990.76116,543897.335994,-829005.459428,-987477.360663,-994494.556724,-1226535.168473,-3717781.390879,-3109946.085208,-3117104.901922,-2859668.595751,-2842560.391731,-174037.298445,-2961773.331377,-2567431.159905
0.3828125,-287440.03623,-2058.327443,-743027.775649,544045.393949,-829002.777219,-987462.876733,-994566.976376,-1226543.751543,-3717767.443391,-3109955.20472,-3117107.584132,-2859653.038937,-2842642.467337,-173801.264024,-2961770.649167,-2567427.404812
0.38671875,-287370.835229,-2165.079375,-742986.469625,543963.318344,-828995.803475,-987450.53857,-994408.726026,-1226542.142217,-3717749.204367,-3109933.747045,-3117080.762038,-2859631.044821,-2842364.59045,-173649.987417,-2961758.311004,-2567414.530207
0.390625,-287425.015858,-2488.553821,-743000.953555,543732.111899,-828992.048382,-987458.585198,-994414.090444,-1226537.314241,-3717742.767065,-3109899.414766,-3117049.64841,-2859619.779541,-2842359.762473,-173817.893722,-2961733.098237,-2567394.145417
0.39453125,-287484.560905,-2479.434309,-743082.492719,543669.3482,-829015.651824,-987483.261524,-994650.661308,-1226564.136334,-3717759.396763,-3109912.825812,-3117064.668782,-2859635.872797,-2842698.793733,-173990.091561,-2961736.85333,-2567404.874254
0.3984375,-287459.348137,-2381.801889,-743132.381813,543703.144038,-829026.380661,-987485.407291,-994762.777658,-1226581.838916,-3717750.813693,-3109924.627534,-3117073.788294,-2859626.216844,-2842856.507642,-173802.336908,-2961739.535539,-2567405.947138
0.40234375,-287388.001369,-2288.461004,-743090.539347,543795.948481,-829024.771336,-987483.261524,-994610.964609,-1226589.349102,-3717739.011972,-3109912.825812,-3117058.767922,-2859612.805797,-2842594.187569,-173604.926301,-2961736.316888,-2567401.655603
0.40625,-287415.359904,-2409.696866,-743084.102045,543677.93127,-829026.917103,-987495.599687,-994559.46619,-1226594.177079,-3717740.084856,-3109888.149487,-3117037.846689,-2859609.050704,-2842489.044963,-173724.552837,-2961721.832957,-2567391.463207
0.41015625,-287484.024463,-2468.705472,-743157.59458,543571.715781,-829040.864592,-987515.448036,-994771.89717,-1226611.343218,-3717754.568786,-3109890.295254,-3117042.138224,-2859619.2431,-2842791.061734,-173931.619398,-2961718.077864,-2567394.145417
0.4140625,-287469.004091,-2138.793723,-743219.821837,543707.435573,-829033.890847,-987500.964105,-994930.14752,-1226610.270335,-3717732.038228,-3109886.003719,-3117033.555154,-2859597.248983,-2843009.393574,-173802.336908,-2961704.130376,-2567380.197928
0.41796875,-287391.756462,-2073.347816,-743192.463302,543724.601713,-829039.255266,-987501.500547,-994803.010798,-1226624.754265,-3717722.918716,-3109882.785068,-3117027.654293,-2859585.447262,-2842779.260013,-173573.27623,-2961710.031236,-2567383.416579
0.421875,-287399.266648,-2393.067168,-743168.85986,543506.269873,-829037.645941,-987505.792082,-994696.795308,-1226626.900032,-3717718.627181,-3109854.890091,-3117004.587293,-2859576.864192,-2842588.286708,-173639.25858,-2961696.083748,-2567372.687742
0.42578125,-287472.222742,-2533.614937,-743232.696442,543357.139034,-829042.473917,-987518.130245,-994862.019403,-1226633.337335,-3717726.137367,-3109843.08837,-3116994.93134,-2859576.864192,-2842828.076223,-173871.001467,-2961677.844724,-2567363.56823
0.4296875,-287475.977835,-2244.472771,-743304.579652,543426.876477,-829055.884964,-987527.249757,-995039.581661,-1226654.795009,-3717728.283134,-3109859.181626,-3117009.41527,-2859577.937076,-2843091.46918,-173775.514814,-2961683.745585,-2567370.541974
0.43359375,-287399.80309,-2090.513955,-743290.632163,543383.961127,-829059.640057,-987526.176873,-994935.511939,-1226675.716242,-3717733.647553,-3109873.665556,-3117013.170363,-2859575.791308,-2842913.906922,-173213.86018,-2961679.990492,-2567381.270812
0.4375,-287391.756462,-2380.192564,-743253.617675,543426.876477,-829037.109499,-987511.692943,-994785.844658,-1226659.622986,-3717711.653437,-3109832.359532,-3116969.18213,-2859545.214122,-2842660.169919,-173408.588577,-2961618.299677,-2567350.693625
0.44140625,-287467.931207,-2591.550659,-743304.04321,543285.255824,-829082.170615,-987564.800687,-994906.544078,-1226706.829871,-3717755.105228,-3109853.817207,-3116997.613549,-2859585.447262,-2842829.685549,-173862.954839,-2961635.465817,-2567380.73437
0.4453125,-287487.779556,-2358.198447,-743380.754397,543353.383941,-829077.879081,-987558.363385,-995111.464871,-1226710.048522,-3717742.230623,-3109850.598556,-3116991.176247,-2859570.963332,-2843130.092994,-173880.65742,-2961618.299677,-2567371.614858
0.44921875,-287493.143975,-2166.688701,-741183.48851,543525.045338,-822681.346259,-981206.355239,-989930.509321,-1220355.894608,-3711365.546151,-3103424.561432,-3110572.649309,-2853134.733812,-2838499.526799,-173616.19158,-2955245.90674,-2560990.638851
0.453125,-287556.444115,-2526.104751,-740387.945221,543393.617081,-821580.031106,-980198.917413,-988337.813418,-1219257.798106,-3710320.557394,-3102262.628348,-3109514.249505,-2852095.109474,-2836861.233337,-173499.247253,-2954223.448542,-2559898.44321
0.45703125,-287550.006813,-2600.670171,-743007.927299,543150.072473,-829069.296011,-987638.829665,-994190.930628,-1226703.611219,-3717783.000205,-3109765.840741,-3117014.779689,-2859617.633774,-2842007.320167,-173776.051256,-2961666.579445,-2567364.641114
0.4609375,-287556.444115,-2420.962145,-743079.81051,543169.384381,-829098.263871,-987638.293223,-994408.189584,-1226744.380801,-3717776.562903,-3109800.709462,-3117012.633921,-2859603.149844,-2842271.786007,-173872.07435,-2961642.439561,-2567392.536091
0.46484375,-287484.560905,-2135.03863,-743092.685114,543297.593987,-829105.237616,-987619.517758,-994425.892165,-1226765.838476,-3717757.787437,-3109820.021369,-3117005.660177,-2859578.473518,-2842247.646123,-173629.066185,-2961630.101398,-2567404.874254
0.46875,-287427.698067,-2310.455121,-743042.259579,543175.285241,-829105.774058,-987610.398246,-994262.277396,-1226772.81222,-3717743.303507,-3109807.683207,-3116977.228758,-2859557.552285,-2841955.821747,-173522.314253,-2961615.617468,-2567400.582719
0.47265625,-287478.660045,-2623.737171,-743063.717254,542944.078796,-829121.867314,-987629.173711,-994318.603792,-1226789.97836,-3717752.423019,-3109799.100137,-3116964.354153,-2859560.234494,-2842010.002376,-173723.479953,-2961603.279305,-2567401.655603
0.4765625,-287523.721161,-2543.270891,-743143.11065,542916.183819,-829130.986825,-987638.829665,-994572.340795,-1226807.1445,-3717753.495902,-3109801.245904,-3116963.817711,-2859558.088727,-2842376.928613,-173864.564164,-2961589.331816,-2567397.90051
0.48046875,-287477.050719,-2218.723562,-743181.734464,543049.757844,-829124.013081,-987618.444874,-994663.535912,-1226809.290267,-3717730.428902,-3109801.782346,-3116956.307525,-2859532.339517,-2842493.336498,-173647.305208,-2961578.602979,-2567388.244556
0.484375,-287415.359904,-2312.600888,-743137.746231,542855.029446,-829122.940197,-987615.226223,-994513.33219,-1226818.409779,-3717719.700065,-3109787.298416,-3116938.604944,-2859516.246261,-2842228.334216,-173489.054857,-2961573.23856,-2567381.807254
0.48828125,-287469.004091,-2645.731288,-743146.865743,542792.80219,-829093.435895,-987599.669409,-994517.087283,-1226793.733453,-3717690.195762,-3109734.190671,-3116884.960757,-2859484.059749,-2842199.902797,-173647.84165,-2961525.495234,-2567338.891904
0.4921875,-287531.767789,-2656.996567,-743226.259139,542794.947957,-829096.118104,-987608.252479,-994753.121704,-1226798.56143,-3717687.513553,-3109722.925392,-3116877.450571,-2859479.231772,-2842531.42387,-173835.059862,-2961508.865536,-2567327.626625
0.49609375,-287503.872812,-2538.979356,-743278.294,542937.105052,-829124.013081,-987627.027944,-994884.01352,-1226832.357267,-3717698.778832,-3109754.575462,-3116904.272664,-2859489.96061,-2842706.840361,-173664.471348,-2961532.468978,-2567349.620742
0.5,-287439.499788,-2517.521681,-743234.842209,542909.210075,-829136.887686,-987633.465246,-994743.465751,-1226847.914082,-3717695.560181,-3109752.966136,-3116899.981129,-2859484.059749,-2842450.95759,-173461.696322,-2961538.369839,-2567354.98516
0.50390625,-287466.858323,-2597.45152,-743217.676069,542678.540072,-829127.231732,-987632.928805,-994676.410517,-1226840.403895,-3717686.440669,-3109716.488089,-3116867.794617,-2859466.357168,-2842323.284426,-173568.984696,-2961511.547746,-2567331.381718
0.5078125,-287536.059324,-2674.699148,-743289.022838,542558.913536,-829147.080081,-987657.60513,-994870.602473,-1226861.325128,-3717702.533925,-3109718.633857,-3116873.159036,-2859479.768214,-2842611.353709,-173786.243652,-2961508.329094,-2567335.673253
0.51171875,-287526.939813,-2362.489982,-743353.932304,542675.321421,-829138.497011,-987641.511874,-995030.462149,-1226860.788686,-3717680.003366,-3109712.732996,-3116863.503082,-2859457.237656,-2842848.461014,-173677.882395,-2961494.918048,-2567322.798648
0.515625,-287452.910835,-2279.341493,-743327.11021,542572.861024,-829130.450383,-987628.100828,-994913.517822,-1226864.543779,-3717658.00925,-3109698.785508,-3116846.336942,-2859433.634214,-2842640.321569,-173441.311531,-2961487.407862,-2567313.142695
0.51953125,-287450.228626,-2596.915078,-743299.751675,542532.091443,-829135.814802,-987644.730526,-994797.109937,-1226878.491268,-3717663.91011,-3109681.082926,-3116832.389454,-2859437.389307,-2842434.327893,-173494.419276,-2961485.798536,-2567312.069811
0.5234375,-287525.330487,-2762.675615,-743358.76028,542461.281116,-829145.470756,-987662.433107,-994958.578939,-1226890.829431,-3717674.638948,-3109671.963414,-3116827.025035,-2859442.217284,-2842656.951267,-173727.235046,-2961473.460373,-2567309.387602
0.52734375,-287546.25172,-2495.527565,-743433.862142,542553.549117,-829145.470756,-987659.750898,-995155.989546,-1226897.803175,-3717662.837227,-3109673.57274,-3116827.025035,-2859432.024888,-2842936.43748,-173689.147674,-2961464.340861,-2567304.023183
0.53125,-287474.36851,-2328.157702,-743424.74263,542624.895886,-829163.173337,-987669.406851,-995073.913941,-1226927.307478,-3717671.420297,-3109696.103298,-3116841.508966,-2859436.852865,-2842777.114246,-173315.247692,-2961484.18921,-2567323.33509
0.53515625,-287455.056602,-2609.253241,-743383.436606,542437.141232,-829159.954686,-987667.797526,-994914.054264,-1226923.552385,-3717667.128762,-3109671.426972,-3116810.931779,-2859419.150283,-2842490.654289,-173135.003225,-2961441.810303,-2567306.16895
0.5390625,-287531.231347,-2839.386802,-743433.3257,542241.339951,-829178.730152,-987696.228945,-995022.951963,-1226945.010059,-3717685.904227,-3109668.208321,-3116810.931779,-2859432.024888,-2842638.175802,-173661.252697,-2961424.107721,-2567310.996927
0.54296875,-287558.053441,-2630.174474,-743512.182654,542294.984137,-829180.875919,-987698.911154,-995238.601594,-1226953.593129,-3717683.222018,-3109673.036298,-3116811.468221,-2859428.269795,-2842939.119689,-173730.990139,-2961417.670419,-2567307.241834
0.546875,-287499.044835,-2388.239192,-743144.719976,542417.829325,-828039.864068,-986555.753536,-994314.848699,-1225828.674534,-3716534.699981,-3108533.097331,-3115666.164835,-2858266.873153,-2842072.229632,-173472.961601,-2960282.559429,-2566169.985076
0.55078125,-287552.15258,-2691.328846,-739684.133492,542293.374812,-818793.75205,-977420.684984,-986520.348373,-1216637.279586,-3707347.596568,-3099202.763939,-3106396.449375,-2849000.912786,-2835002.99871,-173337.778251,-2951092.773806,-2556947.4765
0.5546875,-287644.957023,-2915.025105,-742237.596779,542094.891321,-826651.016075,-985293.505823,-992350.935024,-1224444.118076,-3715225.245383,-3107047.689801,-3114321.305075,-2856957.418556,-2840098.123562,-173558.7923,-2958967.203971,-2564783.28285
0.55859375,-287644.957023,-2734.244196,-743227.868465,542169.456741,-829221.109059,-987814.246156,-994534.253423,-1227013.138177,-3717755.64167,-3109640.313344,-3116875.304803,-2859502.835214,-2842091.005098,-173717.579093,-2961480.970559,-2567352.302951
0.5625,-287567.709394,-2444.029146,-743240.206628,542298.73923,-829205.015803,-987767.039271,-994549.273795,-1227015.283944,-3717708.971227,-3109641.386228,-3116839.363198,-2859446.508818,-2842052.381283,-173477.789578,-2961441.273861,-2567343.719881
0.56640625,-287492.071091,-2604.961706,-743189.781092,542186.62288,-829184.09457,-987732.706992,-994386.195467,-1227001.872897,-3717670.347413,-3109606.517506,-3116786.791895,-2859397.156167,-2841743.92721,-173358.699484,-2961399.431395,-2567317.970671
0.5703125,-287552.15258,-2920.925965,-743209.093,541957.025761,-829212.525989,-987762.211294,-994430.1837,-1227029.767874,-3717684.831343,-3109607.053948,-3116781.427477,-2859407.885004,-2841773.431513,-173545.917695,-2961393.530535,-2567329.772392
0.57421875,-287604.723883,-2868.891104,-743290.632163,541913.037528,-829208.234454,-987757.91976,-994693.576657,-1227029.767874,-3717670.347413,-3109593.642902,-3116763.724895,-2859390.182422,-2842136.602656,-173697.194302,-2961365.099116,-2567314.75202
0.578125,-287561.808534,-2740.681498,-743331.938187,542046.611553,-829227.546361,-987764.893504,-994803.010798,-1227058.199293,-3717672.49318,-3109621.001437,-3116780.354593,-2859390.182422,-2842260.520728,-173489.054857,-2961377.973721,-2567328.163067
0.58203125,-287497.971952,-2777.159545,-743282.585535,541874.413714,-829238.275199,-987770.257922,-994659.244378,-1227074.292549,-3717668.738087,-3109617.246344,-3116770.698639,-2859383.208678,-2841999.80998,-173315.247692,-2961380.65593,-2567329.772392
0.5859375,-287540.350859,-2888.203012,-743284.194861,541802.530504,-829218.963292,-987760.065527,-994647.979098,-1227058.199293,-3717648.889738,-3109571.648785,-3116727.78329,-2859356.923027,-2841962.25905,-173460.086997,-2961344.177883,-2567297.049439
0.58984375,-287605.796767,-2913.415779,-743364.124699,541788.046573,-829218.963292,-987767.575713,-994882.404194,-1227062.490828,-3717645.671087,-3109559.847064,-3116715.981569,-2859350.485724,-2842302.899635,-173656.961162,-2961324.329534,-2567282.565508
0.59375,-287584.875534,-2588.86845,-743420.451095,541923.766366,-829238.275199,-987779.377434,-995025.097731,-1227090.385805,-3717648.353296,-3109583.986948,-3116737.975685,-2859355.313701,-2842498.700917,-173501.929462,-2961339.349906,-2567297.049439
0.59765625,-287507.091463,-2573.311636,-743385.582374,541909.818877,-829247.39471,-987780.450318,-994893.133032,-1227106.479061,-3717644.598203,-3109582.914064,-3116733.147709,-2859347.803515,-2842260.520728,-173287.889157,-2961346.860093,-2567302.950299
0.6015625,-287527.476254,-2903.223384,-743370.562002,541683.440409,-829251.686245,-987791.179155,-994821.786263,-1227113.452806,-3717647.816854,-3109561.45639,-3116714.372243,-2859344.584864,-2842123.19161,-173381.766484,-2961333.985488,-2567294.367229
0.60546875,-287599.895906,-3011.048199,-743442.981654,541553.085035,-829240.420966,-987786.88762,-995017.587545,-1227103.26041,-3717633.869366,-3109534.634296,-3116688.086592,-2859326.882282,-2842410.188009,-173602.780533,-2961299.653208,-2567267.008694
0.609375,-287596.677255,-2705.812777,-743511.646213,541672.17513,-829268.852385,-987811.027504,-995188.7125,-1227138.665573,-3717648.889738,-3109564.675041,-3116715.981569,-2859343.51198,-2842656.951267,-173508.366765,-2961323.25665,-2567289.539252
0.61328125,-287515.674533,-2596.915078,-743489.652096,541706.507409,-829259.196432,-987794.934248,-995083.033452,-1227139.202015,-3717627.432064,-3109551.800436,-3116699.888313,-2859318.835654,-2842462.22287,-173202.058459,-2961313.064255,-2567279.346857
0.6171875,-287508.700789,-2906.978477,-743458.538468,541376.059219,-829234.520106,-987777.231667,-994958.578939,-1227122.035876,-3717609.19304,-3109512.64018,-3116654.827196,-2859288.258468,-2842242.281704,-173025.032642,-2961262.638719,-2567246.623903
0.62109375,-287588.630627,-3085.077177,-743520.229282,541359.965963,-829232.374338,-987785.814737,-995108.782662,-1227126.32741,-3717609.19304,-3109492.791831,-3116635.515289,-2859281.821165,-2842461.686428,-173514.804067,-2961224.014905,-2567231.603531
0.625,-287605.796767,-2828.121522,-743594.794702,541552.548594,-829240.957408,-987792.788481,-995307.266153,-1227145.102876,-3717612.411691,-3109505.129994,-3116648.389894,-2859283.966933,-2842754.047245,-173555.037207,-2961225.624231,-2567236.96795
0.62890625,-287535.522882,-2638.221102,-743587.284516,541634.624199,-829251.686245,-987794.397806,-995234.310059,-1227165.487667,-3717612.948133,-3109519.613924,-3116657.509405,-2859282.894049,-2842617.254569,-173297.008669,-2961240.644603,-2567249.306112
0.6328125,-287511.91944,-2900.541174,-743544.369166,541457.061941,-829275.826129,-987821.2199,-995069.085964,-1227192.846202,-3717627.432064,-3109516.931715,-3116654.827196,-2859293.622886,-2842331.331054,-173268.57725,-2961249.227673,-2567261.107834
0.63671875,-287587.557743,-3140.330689,-743584.602306,541259.651334,-829291.919385,-987846.969109,-995171.54636,-1227209.4759,-3717639.770226,-3109507.275761,-3116652.144987,-2859304.351724,-2842473.488149,-173496.565044,-2961242.79037,-2567262.180717
0.640625,-287617.062046,-3040.01606,-743659.704168,541305.785335,-829295.674478,-987848.578435,-995389.8782,-1227215.913202,-3717633.869366,-3109507.812203,-3116651.608545,-2859296.841538,-2842791.598176,-173542.162602,-2961231.525091,-2567256.279857
0.64453125,-287555.371231,-2952.039594,-743657.021958,541425.411871,-829277.435455,-987822.292784,-995373.248502,-1227202.502156,-3717596.318435,-3109487.963854,-3116626.395777,-2859257.681281,-2842739.563315,-173279.306087,-2961212.213184,-2567233.212856
0.6484375,-287567.172953,-2860.308034,-741913.049449,541324.024358,-824397.960233,-982983.587144,-991278.05129,-1222351.994795,-3712731.327144,-3104561.81819,-3111708.296741,-2854344.410222,-2838972.132083,-173183.819435,-2956338.638823,-2562356.956286
0.65234375,-287757.609815,-3120.48234,-740214.138057,541103.546751,-820420.24379,-979121.742144,-987658.678014,-1218396.80891,-3708826.030353,-3100511.145653,-3107761.157484,-2850413.900663,-2835711.638416,-173268.57725,-2952426.368287,-2558389.96868
0.65625,-287745.271652,-2953.648919,-743290.095721,541171.138426,-829129.913942,-987780.450318,-994548.200911,-1227057.662852,-3717511.024178,-3109255.148084,-3116513.742985,-2859174.532792,-2841869.454607,-173479.398904,-2961101.169717,-2567079.254041
0.66015625,-287660.513837,-2645.194846,-743382.900164,541335.826079,-829350.391549,-987955.330367,-994716.643657,-1227294.233715,-3717690.195762,-3109493.864714,-3116708.471383,-2859345.657747,-2841958.503957,-173277.16032,-2961286.242162,-2567309.924043
0.6640625,-287562.344976,-2773.404452,-743328.183094,541241.412311,-829318.741479,-987905.441273,-994549.273795,-1227275.45825,-3717637.088017,-3109456.313784,-3116645.171242,-2859283.966933,-2841642.003255,-173140.904086,-2961230.452207,-2567280.956183
0.66796875,-287583.80265,-3085.613619,-743338.37549,541011.815192,-829308.549083,-987895.785319,-994577.168772,-1227271.166715,-3717619.921877,-3109427.345923,-3116604.40166,-2859260.899932,-2841647.367674,-173316.320576,-2961189.682625,-2567261.107834
0.671875,-287629.936651,-3042.698269,-743420.987537,540962.998982,-829315.522828,-987901.149738,-994835.19731,-1227282.968436,-3717617.239668,-3109426.273039,-3116599.037242,-2859252.853304,-2841998.737097,-173476.716694,-2961173.052928,-2567254.670531
0.67578125,-287591.849278,-2709.031428,-743470.876631,541111.056937,-829302.648223,-987877.009854,-994960.724707,-1227281.35911,-3717586.12604,-3109420.372179,-3116584.553311,-2859221.739676,-2842151.623029,-173272.868785,-2961154.813904,-2567239.113717
0.6796875,-287525.330487,-2748.728126,-743431.179932,541065.459378,-829306.403316,-987873.791203,-994827.150682,-1227291.551506,-3717574.324319,-3109410.716225,-3116568.996497,-2859209.401513,-2841897.886026,-173084.041248,-2961151.595253,-2567236.431508
0.68359375,-287550.006813,-3068.983921,-743429.570607,540709.261979,-829309.621967,-987885.056482,-994804.620123,-1227298.52525,-3717575.397202,-3109389.794992,-3116547.002381,-2859203.500653,-2841831.903676,-173210.641528,-2961134.429113,-2567225.166228
0.6875,-287613.306953,-3109.753503,-743507.354678,540771.489235,-829323.033014,-987908.123482,-995038.508777,-1227320.519366,-3717587.735365,-3109393.550085,-3116552.366799,-2859210.474397,-2842159.133215,-173408.588577,-2961131.746904,-2567228.921322
0.69140625,-287596.677255,-2779.841754,-743569.045492,541033.272866,-829299.429572,-987877.009854,-995198.368454,-1227305.498994,-3717551.257318,-3109377.456829,-3116531.982008,-2859174.532792,-2842378.537938,-173244.437366,-2961104.924811,-2567201.026344
0.6953125,-287516.747417,-2730.489103,-743536.322538,541039.710169,-829320.350804,-987890.957343,-995068.01308,-1227334.466855,-3717570.032784,-3109400.52383,-3116545.929497,-2859184.188746,-2842141.967075,-172751.44729,-2961116.19009,-2567219.265368
0.69921875,-287533.377115,-3042.161827,-743515.401306,540827.27919,-829350.927991,-987924.75318,-994978.96373,-1227365.044041,-3717599.537086,-3109405.351806,-3116550.221032,-2859206.719304,-2841977.279422,-172908.624757,-2961102.242601,-2567236.96795
0.703125,-287605.796767,-3157.496829,-743581.920097,540694.241607,-829350.391549,-987929.581157,-995168.864151,-1227365.580483,-3717594.172668,-3109387.649225,-3116531.982008,-2859198.136234,-2842248.719007,-173374.79274,-2961068.983205,-2567221.411135
0.70703125,-287603.114558,-3038.406734,-743648.97533,540809.576608,-829326.251665,-987901.68618,-995360.373898,-1227347.34146,-3717556.621737,-3109362.972899,-3116507.305683,-2859158.439536,-2842515.330614,-173298.081553,-2961035.187368,-2567186.542414
0.7109375,-287524.257603,-2928.436152,-743624.299005,540868.048771,-829327.860991,-987894.175994,-995268.105896,-1227351.632995,-3717539.992039,-3109355.999155,-3116496.040403,-2859139.127629,-2842341.52345,-173040.589457,-2961030.895833,-2567178.495786
0.71484375,-287507.091463,-2926.826826,-743586.748074,540677.611909,-829339.12627,-987911.878575,-995136.677639,-1227366.653367,-3717546.965783,-3109342.588108,-3116482.092915,-2859140.200512,-2842108.707679,-173049.708968,-2961031.432275,-2567179.56867
0.71875,-287573.610255,-3096.342456,-743642.538028,540426.557115,-829369.703456,-987951.038832,-995277.76185,-1227401.522088,-3717578.079412,-3109354.389829,-3116498.722613,-2859169.168373,-2842312.555589,-173274.478111,-2961043.233996,-2567198.344135
0.72265625,-287588.630627,-2846.896988,-743721.394983,540532.772605,-829354.683084,-987937.627785,-995490.192829,-1227398.303437,-3717557.158179,-3109344.197433,-3116486.38445,-2859146.637815,-2842622.082546,-173265.358599,-2961020.703437,-2567179.032228
0.7265625,-287517.820301,-2624.273613,-743718.712773,540810.11305,-829317.132153,-987896.321761,-995442.449503,-1227375.236437,-3717509.414853,-3109312.010921,-3116451.515728,-2859098.358047,-2842519.085708,-172997.674107,-2960991.199135,-2567143.627065
0.73046875,-287487.779556,-2860.308034,-743672.042331,540651.862699,-829305.330432,-987885.592924,-995274.543199,-1227365.044041,-3717489.566504,-3109276.605758,-3116416.647007,-2859075.827488,-2842222.969797,-172948.321456,-2960969.205018,-2567124.851599
0.734375,-287554.83479,-3100.097549,-743710.666145,540453.91565,-829333.761851,-987921.534529,-995359.837456,-1227393.47546,-3717516.388597,-3109280.360851,-3116425.230077,-2859097.821605,-2842328.648845,-173162.36176,-2960974.569437,-2567140.944855
0.73828125,-287584.339092,-2912.342896,-743788.450216,540494.14879,-829363.802596,-987949.965948,-995577.632854,-1227429.417065,-3717538.919155,-3109308.255828,-3116450.979287,-2859119.815721,-2842645.149546,-173218.151715,-2960992.272018,-2567163.475414
0.7421875,-287523.184719,-2736.926405,-743801.324821,540627.186373,-829361.120386,-987938.164227,-995564.758249,-1227433.7086,-3717520.14369,-3109303.964293,-3116444.005542,-2859099.430931,-2842613.499476,-172954.758758,-2960988.516925,-2567155.965228
0.74609375,-287479.732928,-2937.555663,-743744.998425,540504.877627,-829383.114503,-987960.158343,-995374.321386,-1227457.312042,-3717527.653876,-3109301.818526,-3116445.078426,-2859106.404675,-2842296.462333,-172847.470385,-2961000.855088,-2567169.376274
0.75,-287610.624744,-3058.255083,-741607.814027,540326.242486,-823144.832032,-981788.394664,-990393.458652,-1221256.044061,-3711318.339267,-3103004.52745,-3110164.417048,-2852833.253483,-2837891.201722,-173023.423317,-2954766.864153,-2560932.166688
0.75390625,-287767.265769,-2964.377757,-740821.39025,540293.519532,-821708.240713,-980447.826439,-988932.727448,-1219831.254462,-3709941.292994,-3101522.338572,-3108786.297892,-2851457.816536,-2836632.709102,-173017.522456,-2953395.718741,-2559504.69488
0.7578125,-287662.659605,-2578.139612,-743525.593701,540555.303163,-829399.207759,-988070.128926,-994904.398311,-1227483.061252,-3717596.854877,-3109264.804037,-3116519.107404,-2859180.970094,-2841869.991049,-172912.916292,-2961057.717926,-2567186.542414
0.76171875,-287548.397487,-2677.381358,-743473.022398,540503.268302,-829420.665433,-988059.936531,-994723.617402,-1227523.294392,-3717586.12604,-3109287.871037,-3116499.795496,-2859158.975978,-2841515.939416,-172783.633802,-2961043.233996,-2567218.192484
0.765625,-287558.053441,-2989.054083,-743474.095282,540275.280508,-829401.889968,-988032.577995,-994725.226727,-1227509.883345,-3717556.085295,-3109247.101456,-3116444.005542,-2859117.669954,-2841473.560509,-172946.175688,-2960986.371158,-2567189.761065
0.76953125,-287600.96879,-2960.622664,-743550.270027,540216.271903,-829417.983224,-988040.624623,-994976.817963,-1227528.658811,-3717556.085295,-3109254.0752,-3116439.714007,-2859111.769093,-2841806.690908,-173116.764202,-2960969.205018,-2567191.370391
0.7734375,-287560.73565,-2615.690543,-743601.232004,540369.694277,-829412.082364,-988020.776274,-995113.074197,-1227535.096113,-3717532.481853,-3109261.048944,-3116431.667379,-2859088.702093,-2841968.15991,-172921.499362,-2960956.330413,-2567182.787321
0.77734375,-287477.587161,-2624.810055,-743561.535306,540340.726416,-829394.379782,-987996.63639,-994980.573056,-1227528.122369,-3717500.295341,-3109235.299735,-3116400.017309,-2859056.515581,-2841725.151745,-172716.578569,-2960934.336297,-2567162.40253
0.78125,-287497.971952,-2940.237873,-743551.342911,540118.103041,-829397.598433,-988004.146576,-994944.095009,-1227530.804578,-3717498.686015,-3109209.550525,-3116374.804541,-2859047.932511,-2841635.565953,-172828.694919,-2960918.243041,-2567149.527925
0.78515625,-287566.636511,-2994.418501,-743625.371888,540016.179087,-829390.624689,-988000.391483,-995174.22857,-1227523.294392,-3717488.49362,-3109188.09285,-3116352.810425,-2859030.766372,-2841954.212422,-173029.860619,-2960887.665854,-2567125.924483
0.7890625,-287555.371231,-2808.809615,-743685.989819,540071.432599,-829397.061991,-988000.927925,-995350.181502,-1227535.632555,-3717484.738527,-3109202.576781,-3116358.174844,-2859021.64686,-2842187.028192,-172796.508407,-2960882.837878,-2567125.924483
0.79296875,-287488.315998,-2850.115639,-743650.048214,540071.432599,-829421.738317,-988022.922042,-995239.674478,-1227573.719928,-3717506.196202,-3109231.0082,-3116375.340983,-2859032.375697,-2841969.232794,-172276.159796,-2960885.520087,-2567150.064367
0.796875,-287488.85244,-2849.579197,-743623.762563,540097.181809,-829426.029852,-988034.187321,-995144.724267,-1227582.302997,-3717508.341969,-3109215.451385,-3116357.638402,-2859029.693488,-2841792.206978,-172658.106406,-2960852.797133,-2567143.627065
0.80078125,-287565.563627,-2952.576036,-743685.453377,539968.435761,-829442.123108,-988058.327205,-995323.895851,-1227598.396253,-3717520.680132,-3109210.086967,-3116354.956192,-2859037.740116,-2842049.699074,-173000.892758,-2960842.068296,-2567140.408413
0.8046875,-287568.782278,-2659.142334,-743754.654378,540080.552111,-829437.295131,-988051.353461,-995523.452225,-1227600.542021,-3717505.65976,-3109211.15985,-3116352.810425,-2859021.64686,-2842337.231915,-172936.519734,-2960830.803017,-2567130.75246
0.80859375,-287487.243114,-2490.699588,-743740.170448,540152.971763,-829450.169736,-988055.644996,-995443.522387,-1227623.609021,-3717506.732643,-3109222.42513,-3116360.320611,-2859018.964651,-2842183.809541,-172674.199662,-2960846.359831,-2567142.017739
0.8125,-287470.613417,-2763.212057,-743702.083075,539968.435761,-829468.40876,-988076.029787,-995300.82885,-1227646.676021,-3717515.852155,-3109215.451385,-3116353.883309,-2859024.329069,-2841934.900514,-172670.98101,-2960851.724249,-2567151.137251
0.81640625,-287545.715278,-2964.377757,-743754.117936,539789.264177,-829455.534155,-988072.811135,-995439.767294,-1227633.264975,-3717502.441109,-3109180.046222,-3116323.842564,-2859009.845139,-2842135.529773,-172899.505246,-2960817.928412,-2567122.16939
0.8203125,-287564.490743,-2725.661126,-743832.974891,539860.074503,-829473.236736,-988084.612856,-995657.562692,-1227653.113324,-3717508.341969,-3109193.993711,-3116339.93582,-2859013.600232,-2842449.884707,-172907.015432,-2960821.147063,-2567129.679576
0.82421875,-287490.998207,-2482.65296,-743840.485077,539930.348388,-829470.554527,-988074.956903,-995619.475319,-1227664.378603,-3717496.003806,-3109196.67592,-3116339.399378,-2858999.652743,-2842367.809101,-172638.794498,-2960824.902156,-2567130.216018
0.828125,-287434.13537,-2704.739893,-743795.960402,539715.235199,-829452.315504,-988061.009414,-995446.741038,-1227657.404859,-3717473.473248,-3109159.661431,-3116299.70268,-2858972.83065,-2842083.494912,-172570.666381,-2960801.298714,-2567107.149018
0.83203125,-287509.237231,-2956.331129,-743832.974891,539707.725013,-829470.018085,-988092.123043,-995523.988667,-1227679.398975,-3717491.175829,-3109153.760571,-3116299.166238,-2858988.387464,-2842197.220587,-172780.951593,-2960799.152946,-2567111.976995
0.8359375,-287551.079697,-2833.485941,-743912.368287,539756.004781,-829475.918946,-988099.633229,-995749.830693,-1227690.127813,-3717492.785155,-3109158.052106,-3116304.530657,-2858986.778138,-2842534.10608,-172856.053454,-2960793.788528,-2567109.831227
0.83984375,-287489.388882,-2808.809615,-743927.388659,539894.406783,-829501.668155,-988114.653601,-995760.023088,-1227720.704999,-3717497.613132,-3109182.19199,-3116327.061215,-2858994.288325,-2842528.741661,-172598.561358,-2960817.928412,-2567131.288902
0.84375,-287444.327765,-2695.620381,-743871.062263,539782.290433,-829506.496132,-988117.872252,-995578.705737,-1227727.678743,-3717488.49362,-3109163.952966,-3116308.28575,-2858983.023045,-2842217.605378,-172478.934822,-2960811.491109,-2567126.997367
0.84765625,-287507.091463,-2853.870732,-742876.499042,539575.223872,-826585.033725,-985229.132799,-993276.297245,-1224822.309592,-3714580.978701,-3106204.403186,-3113352.491063,-2856041.175847,-2840166.788121,-172655.424196,-2957879.836307,-2564198.561215
0.8515625,-287628.327325,-2766.430708,-739962.010379,539560.739942,-819012.620331,-977783.856128,-987022.994402,-1217297.639525,-3707079.912076,-3098563.325234,-3105799.389577,-2848477.881965,-2834659.675915,-172604.462219,-2950374.478146,-2556646.532613
0.85546875,-287624.572232,-2408.623983,-743289.022838,539772.634479,-828565.040656,-987293.897545,-994364.201351,-1226797.488546,-3716616.775586,-3108158.124466,-3115429.593972,-2858105.404151,-2841126.482621,-172481.617031,-2959925.825587,-2566182.859681
0.859375,-287506.555022,-2483.725844,-743591.576051,539735.083548,-829516.152086,-988198.338532,-994924.783102,-1227758.792372,-3717529.799644,-3109116.20964,-3116338.862936,-2859012.527348,-2841415.088345,-172408.124496,-2960830.266575,-2567139.871972
0.86328125,-287507.627905,-2807.20029,-743582.456539,539504.413546,-829530.099574,-988200.4843,-994902.252543,-1227781.859372,-3717527.653876,-3109116.20964,-3116313.113727,-2859002.871395,-2841321.747461,-172562.083311,-2960803.980923,-2567150.064367
0.8671875,-287552.689022,-2804.51808,-743657.021958,539435.748987,-829529.563132,-988192.437672,-995149.552244,-1227786.150907,-3717512.097062,-3109106.553686,-3116290.583168,-2858982.486604,-2841645.221906,-172742.327779,-2960768.039318,-2567135.580437
0.87109375,-287515.138091,-2460.658844,-743709.593261,539584.879826,-829534.927551,-988183.31816,-995300.292409,-1227800.634837,-3717496.003806,-3109118.891849,-3116289.510285,-2858965.320464,-2841824.39349,-172564.229079,-2960761.602016,-2567138.262646
0.875,-287445.937091,-2452.612216,-743673.651656,539568.250128,-829554.239458,-988192.437672,-995182.275198,-1227825.847605,-3717498.149574,-3109128.547803,-3116293.80182,-2858965.320464,-2841585.140417,-172351.261658,-2960775.013062,-2567153.81946
0.87890625,-287458.275254,-2767.503591,-743662.922819,539348.308962,-829563.895412,-988204.775835,-995140.969174,-1227837.112884,-3717504.050434,-3109114.063873,-3116277.172122,-2858963.711138,-2841482.143579,-172447.821194,-2960764.820667,-2567148.991483
0.8828125,-287519.966068,-2840.996127,-743738.561122,539197.032356,-829569.259831,-988212.286021,-995365.738316,-1227845.159512,-3717503.513992,-3109105.480803,-3116267.516168,-2858959.956045,-2841794.889187,-172654.887754,-2960747.118085,-2567135.580437
0.88671875,-287504.945696,-2519.131007,-743806.689239,539224.927333,-829562.822528,-988204.239393,-995556.175179,-1227856.961233,-3717490.639387,-3109112.990989,-3116266.979726,-2858943.862789,-2842054.527051,-172467.669543,-2960739.071457,-2567128.606692
0.890625,-287426.625183,-2420.425704,-743787.913774,539510.850848,-829530.099574,-988168.297788,-995464.980062,-1227836.04,-3717457.379992,-3109088.851105,-3116227.81947,-2858897.728789,-2841871.063932,-171912.988652,-2960688.645922,-2567096.42018
0.89453125,-287428.770951,-2721.369591,-743763.77389,539351.527614,-829531.172458,-988171.516439,-995366.274758,-1227836.04,-3717454.16134,-3109063.101895,-3116202.606702,-2858886.999951,-2841682.236395,-172226.807144,-2960646.267014,-2567081.399808
0.8984375,-287496.362626,-2868.354662,-743827.07403,539200.787449,-829582.670877,-988232.670812,-995536.32683,-1227890.757071,-3717507.269085,-3109099.0435,-3116241.230517,-2858935.279719,-2841919.880142,-172615.727498,-2960674.161991,-2567120.023623
0.90234375,-287502.799929,-2741.21794,-743901.63945,539303.247846,-829595.00904,-988240.180998,-995744.466274,-1227905.777443,-3717507.805527,-3109112.454547,-3116251.422912,-2858934.206836,-2842211.704518,-172568.520614,-2960676.307759,-2567124.315157
0.90625,-287437.354021,-2673.626265,-743885.546194,539385.859893,-829568.186947,-988204.239393,-995680.09325,-1227885.392652,-3717462.74441,-3109080.804477,-3116212.799098,-2858888.072835,-2842078.666935,-172297.617471,-2960646.267014,-2567089.446436
0.91015625,-287403.558183,-2609.253241,-743843.167286,539209.370519,-829577.8429,-988216.577556,-995530.425969,-1227896.12149,-3717463.280852,-3109063.101895,-3116196.705842,-2858883.244858,-2841819.029071,-172272.941145,-2960641.975479,-2567086.764227
0.9140625,-287477.587161,-2793.252801,-743893.05638,539024.298075,-829595.00904,-988242.326765,-995652.734715,-1227912.214746,-3717478.301225,-3109052.9095,-3116196.705842,-2858895.046579,-2841990.690469,-172491.809427,-2960637.683944,-2567087.300669
0.91796875,-287500.117719,-2567.947217,-743970.840451,539084.916006,-829613.248064,-988258.420021,-995875.35809,-1227935.818188,-3717486.347853,-3109068.466314,-3116211.726214,-2858903.629649,-2842313.628473,-172514.339985,-2960641.975479,-2567096.42018
0.921875,-287428.770951,-2310.455121,-743981.032846,539107.983006,-829619.685366,-988254.664928,-995850.145322,-1227956.202979,-3717481.519876,-3109081.340919,-3116218.699958,-2858895.583021,-2842251.937658,-172243.973284,-2960653.240759,-2567104.466808
0.92578125,-287382.63695,-2520.740333,-743939.726822,539013.032796,-829620.221808,-988262.711556,-995675.801715,-1227970.150467,-3717479.91055,-3109067.929872,-3116204.75247,-2858892.36437,-2841956.894631,-172162.43412,-2960655.386526,-2567104.466808
0.9296875,-287442.718439,-2791.107034,-743975.668427,538979.7734,-829618.612482,-988271.294626,-995748.757809,-1227970.150467,-3717477.764783,-3109043.253546,-3116182.221911,-2858884.854184,-2842047.016865,-172367.354914,-2960633.928851,-2567089.982878
0.93359375,-287481.342254,-2641.439753,-744056.134707,538997.475981,-829600.909901,-988255.737812,-995980.500696,-1227957.812304,-3717454.697782,-3109019.113662,-3116160.764237,-2858859.104974,-2842386.584566,-172453.722054,-2960600.133014,-2567061.015017
0.9375,-287421.260765,-2326.548377,-744077.05594,539143.388169,-829610.029413,-988257.347138,-996001.95837,-1227977.124211,-3717448.26048,-3109031.451825,-3116172.565958,-2858855.349881,-2842395.704078,-172198.375726,-2960611.398293,-2567069.061645
0.94140625,-287356.887741,-2461.731727,-744023.411754,539043.609982,-829617.539599,-988262.175114,-995817.422368,-1227988.925933,-3717445.041829,-3109019.650104,-3116160.764237,-2858849.449021,-2842070.083865,-172060.510166,-2960614.080502,-2567073.35318
0.9453125,-287410.531927,-2763.748498,-744037.359242,538820.450165,-829605.201436,-988255.737812,-995826.005438,-1227975.514886,-3717427.875689,-3108979.416964,-3116121.60398,-2858826.918462,-2842063.110121,-172235.926656,-2960579.748223,-2567043.848877
0.94921875,-287489.925324,-2723.515358,-742436.080269,538820.986607,-824819.067099,-983515.201034,-992179.273627,-1223222.639945,-3712665.344794,-3104164.314766,-3111316.694178,-2854015.034916,-2838939.945571,-172366.28203,-2955794.150328,-2562258.787424
0.953125,-287561.272092,-2630.710915,-740601.449084,538981.919167,-820520.021977,-979318.616309,-988298.653161,-1218949.344033,-3708429.599813,-3099822.354296,-3107068.611034,-2849753.004283,-2835420.350483,-171847.542745,-2951573.425719,-2557980.663536
0.95703125,-287470.613417,-2454.757983,-743664.532145,538986.210702,-829417.983224,-988160.25116,-994994.520544,-1227798.48907,-3717298.593199,-3108748.210519,-3115999.295235,-2858697.09953,-2841161.351342,-171769.222232,-2960427.398733,-2566864.140852
0.9609375,-287453.447277,-2647.340613,-743738.561122,538774.316165,-829659.382064,-988375.90079,-995115.219964,-1228050.616747,-3717513.706388,-3108980.489848,-3116189.195655,-2858897.728789,-2841158.132691,-172151.705283,-2960608.179642,-2567106.076134
0.96484375,-287492.607533,-2661.824544,-743806.689239,538693.313443,-829664.746483,-988368.390604,-995341.06199,-1228066.173561,-3717501.904667,-3108982.099173,-3116172.029516,-2858879.489765,-2841440.837555,-172345.360797,-2960572.774479,-2567105.539692
0.96875,-287453.447277,-2320.647516,-743858.187659,538842.444282,-829665.819367,-988350.151581,-995495.557248,-1228076.902399,-3717480.983434,-3108993.900894,-3116165.055771,-2858852.667672,-2841625.909999,-172181.209586,-2960557.217664,-2567101.784599
0.97265625,-287370.835229,-2287.388121,-743822.782495,538840.298514,-829658.845622,-988330.303232,-995380.222247,-1228075.293073,-3717454.16134,-3108979.416964,-3116138.77012,-2858823.699811,-2841397.922206,-171957.513327,-2960540.587967,-2567092.128645
0.9765625,-287374.590322,-2597.45152,-743806.689239,538624.112442,-829653.481204,-988324.938813,-995327.650944,-1228069.392213,-3717443.968945,-3108948.303336,-3116108.192934,-2858805.460787,-2841276.686344,-172035.297398,-2960516.448083,-2567072.816738
0.98046875,-287431.989602,-2687.037311,-743874.280915,538503.413022,-829656.163413,-988330.839673,-995548.128551,-1228075.293073,-3717442.359619,-3108935.428731,-3116095.318329,-2858801.169253,-2841574.41158,-172243.436842,-2960497.136175,-2567059.942133
0.984375,-287421.260765,-2370.53661,-743942.409032,538559.739418,-829629.877762,-988301.335371,-995750.903577,-1228059.736259,-3717404.808689,-3108916.653266,-3116069.569119,-2858762.545438,-2841848.533374,-172143.658655,-2960465.486105,-2567028.828505
0.98828125,-287340.794485,-2251.446515,-743923.097124,538588.707279,-829637.387948,-988304.01758,-995658.635576,-1228081.730375,-3717402.126479,-3108924.163452,-3116070.642003,-2858757.181019,-2841679.554186,-171893.140303,-2960476.751384,-2567035.802249
0.9921875,-287338.648717,-2542.198007,-743893.05638,538600.509,-829646.507459,-988318.50151,-995550.81076,-1228095.677864,-3717406.418014,-3108910.215963,-3116057.230956,-2858758.790345,-2841482.680021,-171914.061536,-2960471.923408,-2567034.729366
0.99609375,-287406.240392,-2704.203451,-743952.064985,538452.987486,-829640.070157,-988320.110836,-995721.399274,-1228090.313445,-3717399.44427,-3108885.539637,-3116033.627514,-2858745.379298,-2841721.396651,-172132.929818,-2960444.02843,-2567012.198807
1.0,0.0,0.0,0.0,0.0,0.0,0.0,0.0,0.0,0.0,0.0,0.0,0.0,0.0,0.0,0.0,0.0
1.00390625,-325030.127171,-8672.119221,-1244713.574018,-19049.587136,-1215933.467857,-1493448.256665,-1713446.821385,-2173184.475086,-3572872.885808,-2627549.127048,-2633811.012961,-2482805.30963,-2486327.050486,-51992.482184,-2547588.71169,-2524002.435684
1.0078125,-324940.004938,-8822.859385,-1244659.393389,-19048.514253,-1215946.342462,-1493460.594828,-1713258.53029,-2173204.323435,-3572889.515506,-2627556.100792,-2633813.158728,-2482813.356258,-2486307.738579,-51584.786366,-2547595.148992,-2524014.773847
1.01171875,-325025.299194,-9090.007435,-1244721.084204,-19204.082394,-1215964.045043,-1493486.344038,-1713320.221105,-2173222.562459,-3572911.509623,-2627556.637234,-2633813.69517,-2482830.522398,-2486352.799696,-51967.269417,-2547578.519294,-2524026.575569
1.015625,-325134.733335,-9022.952202,-1244853.048903,-19212.129022,-1215937.759392,-1493462.740596,-1713554.6462,-2173197.886133,-3572878.250227,-2627526.59649,-2633784.190867,-2482798.872328,-2486389.277743,-52297.181165,-2547537.21327,-2523991.170405
1.01953125,-325070.896753,-8740.78378,-1244651.883203,-19064.607509,-1215407.754827,-1492928.980938,-1713248.874336,-2172680.756173,-3572345.563453,-2627006.247879,-2633259.01428,-2482262.430461,-2485838.351946,-52085.823069,-2547018.473985,-2523464.920934
1.0234375,-324120.321765,-8401.75252,-1238690.941178,-17972.411868,-1203771.25785,-1481401.918102,-1705299.878752,-2161126.334801,-3560805.626012,-2615320.934692,-2621622.517302,-2470614.668204,-2473684.725009,-51023.131731,-2535473.708567,-2511905.135143
1.02734375,-324736.157028,-8932.293526,-1241749.196261,-18696.071946,-1210829.759935,-1488510.30928,-1708941.246145,-2168133.874909,-3567889.877306,-2622338.130753,-2628748.611063,-2477771.875593,-2478890.356885,-51594.442319,-2542590.682815,-2518987.240671
1.03125,-325264.552267,-9110.392226,-1244395.463991,-19222.857859,-1216005.351067,-1493626.891807,-1712390.030907,-2173276.743087,-3573011.824252,-2627528.205815,-2633904.353846,-2482938.347213,-2484402.83351,-52297.717607,-2547696.000063,-2524136.546151
1.03515625,-325232.902197,-8844.853502,-1244428.723386,-19075.872788,-1215977.992532,-1493564.66455,-1712506.438793,-2173261.186273,-3572945.30546,-2627518.549862,-2633852.855426,-2482870.755538,-2484972.534772,-52179.700396,-2547635.382132,-2524094.167244
1.0390625,-325096.645963,-8879.722223,-1244357.91306,-19068.899044,-1215965.654369,-1493531.405155,-1712390.030907,-2173261.186273,-3572916.874041,-2627511.576117,-2633823.887566,-2482841.251235,-2485314.784684,-51979.071138,-2547618.752434,-2524072.173127
1.04296875,-325096.645963,-9182.811878,-1244362.204595,-19232.513813,-1215990.330695,-1493551.253504,-1712414.707233,-2173289.617692,-3572934.576623,-2627520.159187,-2633823.887566,-2482856.271607,-2485585.151384,-52092.260372,-2547626.26262,-2524080.219755
1.046875,-325223.782685,-9274.543437,-1244492.023527,-19319.953837,-1215999.450207,-1493557.690806,-1712705.458725,-2173300.34653,-3572931.357972,-2627520.159187,-2633815.304496,-2482853.052956,-2485791.145061,-52364.236398,-2547608.023597,-2524072.173127
1.05078125,-325254.359872,-9026.707295,-1244597.166133,-19230.368046,-1216001.595974,-1493551.253504,-1712910.379518,-2173308.929599,-3572918.483367,-2627533.033792,-2633817.986705,-2482844.469886,-2485929.547063,-52311.128653,-2547605.877829,-2524063.590057
1.0546875,-325148.680824,-8992.911457,-1244568.734714,-19152.047533,-1215980.138299,-1493521.749201,-1712820.793727,-2173296.054995,-3572888.979064,-2627512.112559,-2633789.555286,-2482813.8927,-2485960.660691,-52086.895953,-2547593.003224,-2524035.69508
1.05859375,-325152.972359,-9292.246019,-1244566.052504,-19287.230884,-1215968.87302,-1493513.166131,-1712780.560587,-2173286.935483,-3572873.958692,-2627481.535373,-2633756.29589,-2482797.263002,-2486040.054088,-52140.54014,-2547573.154875,-2524014.773847
1.0625,-325304.785407,-9462.834533,-1244691.043459,-19401.493001,-1215995.158672,-1493544.816201,-1713014.985682,-2173312.148251,-3572896.48925,-2627490.118443,-2633767.024728,-2482816.038467,-2486126.95767,-52429.145864,-2547579.055736,-2524026.039127
1.06640625,-325386.324571,-9266.496809,-1244819.253065,-19315.662302,-1215984.966276,-1493530.332271,-1713234.926848,-2173306.24739,-3572875.031576,-2627482.608257,-2633756.29589,-2482796.190118,-2486157.534857,-52458.650167,-2547560.816712,-2524007.800103
1.0703125,-325314.441361,-9181.202552,-1244817.107298,-19274.892721,-1215976.383206,-1493515.311899,-1713154.99701,-2173308.929599,-3572856.792552,-2627476.707396,-2633746.103495,-2482780.633304,-2486143.050926,-52241.927653,-2547564.571806,-2523999.753475
1.07421875,-325279.572639,-9462.298091,-1244794.040298,-19378.426001,-1215981.747625,-1493523.894968,-1713043.953543,-2173318.585553,-3572860.011203,-2627463.832791,-2633734.301774,-2482782.779072,-2486162.362833,-52238.17256,-2547569.399782,-2524000.289917
1.078125,-325420.65685,-9699.941838,-1244898.11002,-19516.291561,-1216011.78837,-1493562.518783,-1713216.687824,-2173349.699181,-3572892.734157,-2627476.707396,-2633750.931472,-2482811.746932,-2486221.371439,-52526.241842,-2547584.420155,-2524020.674708
1.08203125,-325538.137619,-9565.831371,-1245033.829812,-19457.819397,-1216010.179044,-1493557.154364,-1713451.11292,-2173349.699181,-3572879.859552,-2627474.025187,-2633742.348402,-2482799.945211,-2486243.901997,-52636.212425,-2547568.86334,-2524008.872987
1.0859375,-325493.612944,-9426.356486,-1245047.240859,-19356.431884,-1215974.773881,-1493515.84834,-1713399.614501,-2173323.41353,-3572836.407761,-2627445.057326,-2633707.47968,-2482758.102746,-2486197.231555,-52432.364515,-2547545.259898,-2523974.540707
1.08984375,-325441.578083,-9674.192628,-1245005.398393,-19470.694002,-1215986.575602,-1493526.040736,-1713235.46329,-2173338.433902,-3572843.917947,-2627439.692907,-2633704.797471,-2482767.222258,-2486181.674741,-52374.965236,-2547558.670945,-2523984.733103
1.09375,-325570.324131,-9967.626329,-1245089.083325,-19648.792702,-1215988.184927,-1493535.69669,-1713345.433872,-2173338.433902,-3572843.917947,-2627415.553023,-2633687.631331,-2482763.467164,-2486228.345183,-52645.868378,-2547542.041247,-2523974.540707
1.09765625,-325718.918528,-9904.862631,-1245224.803117,-19653.620679,-1216003.2053,-1493554.472155,-1713576.103875,-2173357.209367,-3572853.573901,-2627428.427628,-2633698.360169,-2482773.123118,-2486264.82323,-52834.695916,-2547542.577689,-2523985.269545
1.1015625,-325717.845645,-9733.201234,-1245259.135396,-19572.081515,-1216002.132416,-1493548.034853,-1713558.401294,-2173364.719554,-3572841.77218,-2627434.328489,-2633700.505936,-2482765.07649,-2486228.881625,-52661.961634,-2547547.942108,-2523986.87887
1.10546875,-325667.956551,-9946.168655,-1245207.100535,-19610.168887,-1216012.324811,-1493557.154364,-1713363.672896,-2173379.739926,-3572847.136598,-2627431.646279,-2633696.214401,-2482771.513792,-2486212.788369,-52568.084308,-2547564.571806,-2523992.243289
1.109375,-325799.384808,-10302.366054,-1245269.864234,-19807.579494,-1216030.027393,-1493582.367132,-1713411.952664,-2173396.906066,-3572863.766296,-2627423.063209,-2633692.459308,-2482785.461281,-2486244.974881,-52825.039962,-2547564.571806,-2523998.680591
1.11328125,-325999.477625,-10353.864474,-1245413.094212,-19862.296565,-1216048.266417,-1493604.89769,-1713649.596411,-2173415.681531,-3572878.250227,-2627431.109837,-2633702.115262,-2482796.190118,-2486256.24016,-53098.088872,-2547565.644689,-2524008.336545
1.1171875,-326071.360835,-10205.270076,-1245483.904539,-19768.419238,-1216030.027393,-1493581.294248,-1713689.829551,-2173403.87981,-3572849.818808,-2627415.553023,-2633683.339796,-2482769.368025,-2486234.246043,-53003.675104,-2547547.942108,-2523987.415312
1.12109375,-325981.238601,-10355.473799,-1244806.378461,-19741.060703,-1214670.683702,-1492226.242092,-1712653.423864,-2172054.192073,-3571489.938675,-2626037.433867,-2632302.001989,-2481398.222613,-2484871.14726,-52825.039962,-2546192.889952,-2522626.462296
1.125,-325282.791291,-10218.681123,-1238731.71076,-18835.546832,-1202930.653445,-1480621.395185,-1704660.440047,-2160393.018769,-3559866.852744,-2614226.593283,-2620565.726824,-2469666.238983,-2472354.349179,-52156.633396,-2534541.909044,-2510968.507644
1.12890625,-326350.847048,-10833.979944,-1243351.011676,-19838.693123,-1212689.067446,-1490398.04821,-1710333.31279,-2170078.476677,-3569616.683676,-2623958.721633,-2630384.222315,-2479512.629451,-2480407.414485,-53164.071222,-2544315.343418,-2520725.312319
1.1328125,-326776.78189,-10906.936038,-1245125.02493,-20126.225963,-1216092.791092,-1493744.372576,-1712568.666049,-2173468.252834,-3572956.034297,-2627383.366511,-2633761.123867,-2482884.703026,-2484263.358624,-53477.889714,-2547655.230481,-2524109.187616
1.13671875,-326792.875146,-11102.200878,-1245064.406999,-20201.327825,-1216066.50544,-1493691.264831,-1712433.482699,-2173455.378229,-3572902.390111,-2627360.835953,-2633702.115262,-2482826.767305,-2484787.99877,-53395.814108,-2547602.122736,-2524074.855337
1.140625,-326939.860218,-11585.535,-1245079.427371,-20456.674153,-1216065.968998,-1493682.681761,-1712432.946257,-2173460.742648,-3572888.979064,-2627340.987604,-2633665.637215,-2482809.601165,-2485169.408938,-53622.192576,-2547572.081992,-2524056.079871
1.14453125,-327226.320174,-11881.650911,-1245222.120908,-20639.60083,-1216067.041882,-1493682.681761,-1712709.75026,-2173465.034183,-3572877.713785,-2627324.357906,-2633639.888005,-2482795.653676,-2485406.516243,-54028.815511,-2547536.676828,-2524032.476429
1.1484375,-327436.605386,-11840.344887,-1245354.085607,-20614.924504,-1216100.301278,-1493705.748761,-1712922.717681,-2173500.975788,-3572891.124832,-2627357.617302,-2633660.809238,-2482809.064723,-2485575.495431,-54131.81235,-2547547.405666,-2524047.496801
1.15234375,-327504.197062,-11987.8664,-1245354.085607,-20663.204272,-1216096.009743,-1493691.801273,-1712837.423424,-2173505.267323,-3572878.250227,-2627351.179999,-2633643.643098,-2482792.971467,-2485647.915083,-54042.226558,-2547540.431922,-2524036.231522
1.15625,-327649.036366,-12470.66408,-1245369.105979,-20910.503973,-1216065.968998,-1493662.833412,-1712780.560587,-2173481.663881,-3572847.136598,-2627300.754464,-2633589.998912,-2482760.784955,-2485721.944061,-54213.351514,-2547498.589456,-2523997.607708
1.16015625,-327956.953997,-12844.564062,-1245508.044423,-21132.590906,-1216082.062254,-1493688.04618,-1713007.475496,-2173502.585113,-3572860.547645,-2627294.853603,-2633589.46247,-2482774.732444,-2485800.801015,-54636.067705,-2547489.469944,-2524000.826359
1.1640625,-328214.982535,-12857.975108,-1245652.883727,-21142.246859,-1216057.385928,-1493661.760528,-1713238.145499,-2173481.127439,-3572819.778063,-2627263.739975,-2633555.13019,-2482736.645071,-2485832.451085,-54816.312172,-2547443.872385,-2523963.81187
1.16796875,-328309.932746,-12939.514272,-1245663.076122,-21156.73079,-1216075.08851,-1493671.952924,-1713166.798731,-2173504.730881,-3572826.751808,-2627279.296789,-2633558.348841,-2482742.545932,-2485821.722248,-54725.653496,-2547459.965641,-2523976.150033
1.171875,-328421.512654,-13387.443231,-1245645.909982,-21376.671955,-1216079.916487,-1493679.999552,-1713039.125566,-2173519.214811,-3572832.116226,-2627266.422184,-2633541.719144,-2482744.691699,-2485848.007899,-54828.650335,-2547460.502083,-2523978.2958
1.17578125,-328705.290402,-13809.62298,-1245754.807681,-21620.216563,-1216089.57244,-1493697.702133,-1713196.839475,-2173534.235184,-3572839.626412,-2627251.401812,-2633532.06319,-2482755.420536,-2485896.824109,-55233.663944,-2547448.700362,-2523978.832242
1.1796875,-328982.094405,-13869.168028,-1245900.183427,-21665.814121,-1216086.353789,-1493692.337715,-1713438.238315,-2173534.771625,-3572824.069598,-2627237.990765,-2633519.725027,-2482740.936606,-2485915.063133,-55485.25518,-2547425.09692,-2523965.957638
1.18359375,-329099.575174,-13892.77147,-1245924.859753,-21652.939517,-1216074.015626,-1493673.562249,-1713400.687385,-2173527.797881,-3572799.929714,-2627225.116161,-2633499.876678,-2482716.26028,-2485892.532574,-55400.497365,-2547409.003664,-2523947.182172
1.1875,-329185.405873,-14291.347777,-1245877.652869,-21841.767054,-1216083.67158,-1493685.900412,-1713233.853964,-2173543.891137,-3572809.049226,-2627218.678858,-2633491.83005,-2482724.84335,-2485864.637597,-55441.266947,-2547418.659618,-2523954.692358
1.19140625,-329442.897969,-14748.396247,-1245951.145405,-22099.795592,-1216081.525812,-1493691.801273,-1713328.804175,-2173549.255556,-3572806.903458,-2627191.856765,-2633469.299492,-2482722.697583,-2485919.354668,-55811.411835,-2547397.201943,-2523946.64573
1.1953125,-329727.7486,-14861.049039,-1246088.474523,-22178.116104,-1216070.260533,-1493684.291087,-1713564.302154,-2173541.208928,-3572787.591551,-2627170.935532,-2633449.451142,-2482704.458559,-2485954.223389,-56116.647257,-2547364.478989,-2523927.870265
1.19921875,-329860.249741,-14833.154062,-1246125.489011,-22138.419406,-1216069.724091,-1493680.535994,-1713563.22927,-2173546.573346,-3572776.326272,-2627171.471974,-2633445.159608,-2482692.656838,-2485932.229272,-56054.420001,-2547361.79678,-2523924.651614
1.203125,-329921.940556,-15164.675136,-1246062.188871,-22288.623129,-1216074.015626,-1493685.36397,-1713366.891547,-2173558.375068,-3572778.47204,-2627163.961788,-2633433.894328,-2482693.729722,-2485919.354668,-56037.790303,-2547366.624757,-2523927.870265
1.20703125,-330144.563931,-15637.280421,-1246100.276244,-22550.40676,-1216075.08851,-1493693.410598,-1713401.223827,-2173565.348812,-3572781.154249,-2627139.285462,-2633415.118863,-2482696.411931,-2485936.520807,-56357.509656,-2547352.140826,-2523923.57873
1.2109375,-330414.39419,-15788.020586,-1246216.147687,-22654.476482,-1216078.843603,-1493701.993668,-1713633.503155,-2173571.249672,-3572776.326272,-2627128.556624,-2633407.072235,-2482693.19328,-2485962.270017,-56694.395148,-2547333.365361,-2523919.287195
1.21484375,-330537.239377,-15690.388166,-1246255.844385,-22587.421249,-1216087.963115,-1493702.53011,-1713676.954946,-2173583.051393,-3572767.743202,-2627137.676136,-2633408.681561,-2482686.219536,-2485972.998854,-56647.724706,-2547333.365361,-2523919.287195
1.21875,-330536.702935,-15899.600494,-1246172.159454,-22668.423971,-1216061.677463,-1493676.244459,-1713472.034153,-2173566.958137,-3572739.311783,-2627105.489624,-2633371.667072,-2482656.178791,-2485934.37504,-56550.092286,-2547312.444128,-2523894.074427
1.22265625,-328168.312093,-14686.168991,-1237006.513716,-20626.726225,-1198713.683929,-1476448.950344,-1702262.00846,-2156504.888118,-3555962.628837,-2609951.688045,-2616269.363912,-2465523.834887,-2469255.860955,-54410.225679,-2530287.925039,-2506882.429943
1.2265625,-321104.445589,-10213.316704,-1211844.171505,-14287.056242,-1154808.59933,-1431660.882433,-1672092.517864,-2113521.410647,-3514458.658035,-2566923.685899,-2573729.523865,-2422830.036024,-2424737.086861,-47389.274524,-2487946.032041,-2464434.857897
1.23046875,-324891.188728,-12090.863239,-1220386.471794,-16987.5046,-1173206.94604,-1445585.840414,-1681070.408949,-2129994.467496,-3531523.946705,-2584321.032086,-2591566.21594,-2440801.375008,-2433735.899178,-50372.964188,-2505824.03014,-2482221.124437
1.234375,-330875.197753,-15854.002935,-1238965.599414,-22096.576941,-1210642.541724,-1481632.588104,-1701824.271896,-2165760.119648,-3568000.920773,-2621453.538114,-2628594.115805,-2477929.05306,-2462915.65453,-55816.239812,-2542695.288979,-2519188.942813
1.23828125,-331794.122671,-16880.216227,-1241656.391818,-23131.909744,-1216236.557512,-1491340.040128,-1705288.077031,-2172736.546127,-3573326.715628,-2627079.740415,-2633963.362451,-2483309.028543,-2472807.642556,-57010.89585,-2548000.162601,-2524660.649855
1.2421875,-331913.212766,-17177.941463,-1241667.657097,-23318.591513,-1216192.569279,-1493603.288365,-1705963.457342,-2173652.788836,-3573153.981346,-2627054.527647,-2633774.534914,-2483114.300145,-2477007.445932,-57437.903576,-2547765.201064,-2524502.399504
1.24609375,-332009.772302,-17128.588811,-1241772.799703,-23297.133839,-1216195.251488,-1494080.185185,-1706674.242815,-2173742.374628,-3573057.42181,-2627079.203973,-2633688.704215,-2483010.766865,-2479668.734034,-57556.99367,-2547646.647411,-2524398.329782
1.25,-331976.512906,-17222.466138,-1241804.449773,-23321.273723,-1216185.059093,-1494023.858788,-1707111.979379,-2173748.275488,-3572988.220809,-2627091.005694,-2633620.039656,-2482932.982794,-2481285.569821,-57453.46039,-2547570.472666,-2524309.280432
1.25390625,-332031.229977,-17659.666259,-1241879.015193,-23546.042865,-1216162.528534,-1493964.850183,-1707546.497291,-2173732.182232,-3572931.357972,-2627067.938694,-2633544.401353,-2482869.146212,-2482377.765462,-57594.544601,-2547492.688595,-2524221.303966
1.2578125,-332265.655072,-18014.254333,-1242107.539428,-23758.473844,-1216141.607301,-1493921.398392,-1708229.924229,-2173715.016093,-3572880.932436,-2627038.434391,-2633482.174096,-2482817.111351,-2483175.454518,-57999.55821,-2547413.295199,-2524142.983454
1.26171875,-332457.164819,-17994.942426,-1242356.448454,-23756.864519,-1216155.018348,-1493912.815322,-1708893.502819,-2173730.036465,-3572864.302738,-2627057.746298,-2633469.299492,-2482798.335886,-2483724.234548,-58172.292491,-2547384.327338,-2524109.724058
1.265625,-332487.742005,-18018.009426,-1242485.730944,-23741.307705,-1216148.044604,-1493881.701694,-1709234.143404,-2173727.354256,-3572831.579784,-2627060.428507,-2633439.795189,-2482762.394281,-2484098.134529,-58049.447304,-2547359.114571,-2524070.563802
1.26953125,-332541.386192,-18411.221315,-1242581.217597,-23936.572544,-1216149.653929,-1493872.04574,-1709473.396477,-2173735.400884,-3572821.923831,-2627050.772554,-2633412.436654,-2482747.91035,-2484419.463208,-58116.502537,-2547343.557756,-2524046.960359
1.2734375,-332784.9308,-18809.26118,-1242809.20539,-24169.388314,-1216162.528534,-1493882.774577,-1709956.194157,-2173752.567023,-3572825.678924,-2627044.335251,-2633401.171374,-2482751.665443,-2484703.240955,-58494.157612,-2547325.318733,-2524034.622197
1.27734375,-333037.594919,-18861.832483,-1243083.863626,-24214.449431,-1216132.48779,-1493845.760089,-1710501.219094,-2173725.208488,-3572779.544923,-2627012.685181,-2633358.792467,-2482705.531443,-2484896.360027,-58746.285289,-2547267.919453,-2523983.660219
1.28125,-333123.425618,-18837.692599,-1243235.140232,-24179.044268,-1216150.726813,-1493851.660949,-1710746.373027,-2173746.666163,-3572777.399156,-2627035.752182,-2633363.084002,-2482704.458559,-2485028.861168,-58647.579986,-2547275.966081,-2523984.196661
1.28515625,-333152.393478,-19165.995022,-1243301.659024,-24333.539526,-1216160.919209,-1493857.025368,-1710825.229982,-2173763.832303,-3572781.690691,-2627035.752182,-2633353.428048,-2482707.67721,-2485145.269054,-58643.824893,-2547280.257616,-2523984.196661
1.2890625,-333374.480411,-19596.221399,-1243490.486561,-24577.084133,-1216138.925092,-1493839.859228,-1711142.803567,-2173748.81193,-3572758.087249,-2626992.30039,-2633310.512699,-2482680.855117,-2485279.37952,-58987.684129,-2547236.269383,-2523949.32794
1.29296875,-333656.648833,-19719.603028,-1243751.73375,-24664.524158,-1216116.394534,-1493818.937995,-1711592.341851,-2173730.572907,-3572724.291411,-2626960.65032,-2633277.253303,-2482650.814372,-2485357.163591,-59306.330598,-2547191.744708,-2523912.849893
1.296875,-333807.92544,-19697.07247,-1243915.884962,-24631.264762,-1216091.718208,-1493786.215041,-1711802.627063,-2173709.115232,-3572684.594713,-2626935.437552,-2633243.993907,-2482612.190558,-2485393.641638,-59264.488133,-2547156.339545,-2523877.44473
1.30078125,-333881.417976,-20021.083357,-1243972.747799,-24779.322717,-1216114.785208,-1493806.063391,-1711781.70583,-2173738.083093,-3572702.297294,-2626944.557064,-2633247.749001,-2482626.138047,-2485430.119685,-59251.613528,-2547176.724336,-2523895.147311
1.3046875,-334120.134606,-20515.682759,-1244121.342197,-25052.908069,-1216139.997976,-1493834.494809,-1711952.830786,-2173767.587396,-3572723.218527,-2626944.557064,-2633248.821884,-2482649.741489,-2485499.320686,-59580.452392,-2547179.942987,-2523910.704125
1.30859375,-334438.244633,-20728.113738,-1244357.91306,-25190.773629,-1216151.799697,-1493849.515182,-1712317.611255,-2173781.534884,-3572727.510062,-2626941.874855,-2633248.821884,-2482656.178791,-2485578.17764,-59962.935443,-2547167.604824,-2523911.240567
1.3125,-334620.634868,-20684.661947,-1244518.84562,-25156.977791,-1216143.753069,-1493838.249903,-1712503.220141,-2173782.071326,-3572708.734597,-2626938.119762,-2633238.093047,-2482635.794,-2485600.708199,-59970.982071,-2547152.584452,-2523897.293079
1.31640625,-334665.695985,-20915.33195,-1244544.058388,-25255.146653,-1216141.07086,-1493833.421926,-1712422.217419,-2173789.581512,-3572699.615085,-2626931.146017,-2633220.926907,-2482625.601605,-2485595.880222,-59902.853954,-2547150.438684,-2523893.001544
1.3203125,-334798.733568,-21342.339676,-1244355.767292,-25453.093702,-1215495.194852,-1493198.811197,-1712112.690462,-2173153.361458,-3572059.103496,-2626262.203009,-2632555.738992,-2481980.262039,-2485036.371355,-60116.894259,-2546493.833839,-2523241.224675
1.32421875,-333683.470927,-20310.225524,-1238601.891828,-24143.639105,-1203764.284106,-1481581.089685,-1704697.454536,-2161499.161899,-3560432.262472,-2614466.382798,-2620828.583339,-2470250.960618,-2472850.021464,-59233.374504,-2534823.541024,-2511582.733581
1.328125,-335014.383199,-21198.036814,-1242059.796102,-25060.418255,-1211262.668522,-1489117.561474,-1708773.339841,-2168943.902128,-3567937.08419,-2621941.163771,-2628396.168756,-2477833.566407,-2478375.909135,-60137.815492,-2542374.496743,-2519098.284137
1.33203125,-335889.856325,-22142.710941,-1244536.548202,-25886.53873,-1216194.715046,-1493989.526509,-1711734.498946,-2173854.490978,-3572808.512784,-2626889.303552,-2633296.028769,-2482744.691699,-2483569.73929,-60775.644872,-2547247.534662,-2524009.409429
1.3359375,-336117.844119,-22730.114785,-1244577.854225,-26196.60213,-1216164.674302,-1493939.100973,-1711758.102388,-2173837.324838,-3572755.405039,-2626843.705993,-2633220.926907,-2482688.365303,-2484150.16939,-61064.787038,-2547172.432801,-2523968.103405
1.33984375,-336478.333053,-23138.883488,-1244752.197832,-26438.00097,-1216173.793813,-1493938.02809,-1712070.847997,-2173852.345211,-3572746.821969,-2626836.195807,-2633198.396349,-2482677.636466,-2484588.442396,-61544.366067,-2547133.808986,-2523952.546591
1.34375,-336778.204057,-23205.40228,-1244930.296532,-26474.479017,-1216176.476023,-1493926.762811,-1712363.745256,-2173863.074048,-3572725.364295,-2626839.9509,-2633184.44886,-2482657.251675,-2484863.637073,-61747.141093,-2547104.304684,-2523934.844009
1.34765625,-336926.798454,-23397.98491,-1244978.039858,-26547.971552,-1216165.747185,-1493905.841578,-1712363.745256,-2173860.92828,-3572699.615085,-2626827.612737,-2633154.944558,-2482630.429581,-2485009.012819,-61717.100348,-2547081.774125,-2523911.777009
1.3515625,-337142.984527,-23947.837823,-1245024.173859,-26830.676416,-1216161.455651,-1493903.159368,-1712352.479977,-2173865.219815,-3572690.495573,-2626804.009295,-2633123.830929,-2482620.237186,-2485132.394449,-61927.922002,-2547057.634241,-2523895.683753
1.35546875,-337560.872741,-24469.259318,-1245213.537838,-27128.401652,-1216162.528534,-1493910.669555,-1712623.38312,-2173871.120676,-3572688.886248,-2626780.942295,-2633104.519022,-2482618.62786,-2485261.140497,-62437.541775,-2547027.057055,-2523881.736264
1.359375,-337985.734699,-24667.206367,-1245432.942561,-27239.981561,-1216134.097115,-1493883.847461,-1712929.691426,-2173847.517234,-3572646.50734,-2626742.854922,-2633064.285882,-2482579.467604,-2485317.466893,-62774.96371,-2546971.803543,-2523839.357357
1.36328125,-338262.002261,-24902.167905,-1245525.747004,-27332.786004,-1216143.753069,-1493887.066112,-1712943.102472,-2173864.683374,-3572644.361573,-2626747.146457,-2633058.385021,-2482577.321837,-2485326.049963,-62816.806175,-2546970.194217,-2523842.039566
1.3671875,-338536.660497,-25508.347214,-1245564.907261,-27634.266333,-1216168.429395,-1493914.424648,-1712861.026867,-2173896.869886,-3572666.355689,-2626749.292225,-2633058.921463,-2482597.170186,-2485351.799172,-63029.773596,-2546980.386612,-2523859.205706
1.37109375,-339002.828479,-26142.957943,-1245734.42289,-27989.390849,-1216144.289511,-1493900.477159,-1713048.78152,-2173879.167304,-3572639.533596,-2626694.575154,-2633011.178137,-2482574.103185,-2485387.740777,-63568.897673,-2546929.961077,-2523826.482752
1.375,-339487.771927,-26440.683179,-1245951.145405,-28163.198014,-1216117.467417,-1493879.019484,-1713338.99657,-2173859.318955,-3572603.055549,-2626650.586921,-2632968.79923,-2482539.770906,-2485389.886545,-64004.488469,-2546873.634681,-2523791.077589
1.37890625,-339825.730303,-26661.697228,-1246051.460034,-28252.783805,-1216133.024232,-1493894.576299,-1713363.136454,-2173882.385955,-3572610.029293,-2626661.8522,-2632973.090765,-2482542.453115,-2485354.481382,-64095.147144,-2546876.853332,-2523801.269984
1.3828125,-340120.77333,-27256.074817,-1246068.089732,-28538.707321,-1216143.753069,-1493904.232252,-1713217.760708,-2173900.624979,-3572615.930154,-2626652.196247,-2632960.752602,-2482548.353976,-2485358.772917,-64275.928053,-2546876.853332,-2523809.316612
1.38671875,-340603.034568,-27969.006058,-1246198.445105,-28926.018348,-1216143.753069,-1493916.033973,-1713321.293988,-2173907.598723,-3572617.539479,-2626621.61906,-2632936.076276,-2482551.572627,-2485391.495871,-64804.859734,-2546850.031239,-2523801.269984
1.390625,-341148.059505,-28382.602737,-1246408.730317,-29164.198537,-1216145.362394,-1493927.299252,-1713601.853085,-2173917.254676,-3572611.638619,-2626604.989362,-2632921.592345,-2482548.353976,-2485396.860289,-65333.254973,-2546820.526936,-2523795.369124
1.39453125,-341561.119743,-28619.173601,-1246529.429737,-29267.731818,-1216153.409022,-1493933.736555,-1713667.835434,-2173932.275049,-3572608.419968,-2626604.989362,-2632918.910136,-2482542.989557,-2485373.793289,-65492.578208,-2546811.407424,-2523797.514891
1.3984375,-341871.719583,-29179.21891,-1246531.039063,-29535.952751,-1216159.846325,-1493937.491648,-1713505.829991,-2173946.222537,-3572605.737758,-2626591.578316,-2632900.671113,-2482542.453115,-2485340.533893,-65647.609907,-2546803.897238,-2523797.514891
1.40234375,-342338.96045,-29924.873105,-1246616.33332,-29936.138384,-1216170.575162,-1493961.631532,-1713536.407177,-2173966.607328,-3572619.148805,-2626572.80285,-2632888.33295,-2482556.937046,-2485356.090707,-66141.136425,-2546790.486192,-2523804.488636
1.40625,-342911.880363,-30422.691157,-1246807.306624,-30220.452573,-1216151.263255,-1493951.975578,-1713796.045041,-2173955.342049,-3572595.008921,-2626528.814617,-2632850.782019,-2482533.333604,-2485378.621266,-66724.785176,-2546736.842005,-2523776.057217
1.41015625,-343391.995834,-30687.156998,-1246947.854393,-30342.224877,-1216146.435278,-1493946.61116,-1713904.406298,-2173957.487817,-3572575.697014,-2626515.940012,-2632832.006554,-2482514.558138,-2485335.705916,-66963.501807,-2546711.629237,-2523764.255496
1.4140625,-343764.822932,-31253.639609,-1246958.583231,-30605.081392,-1216141.07086,-1493942.856067,-1713744.546621,-2173963.388677,-3572564.431735,-2626493.945896,-2632805.18446,-2482501.147092,-2485286.353265,-67132.480995,-2546696.072423,-2523756.208868
1.41796875,-344286.780868,-32100.144875,-1247033.14865,-31046.573048,-1216144.289511,-1493956.803555,-1713719.333854,-2173975.72684,-3572570.869037,-2626464.441593,-2632782.653902,-2482506.51151,-2485302.982962,-67631.371931,-2546674.078306,-2523753.526658
1.421875,-344115.655913,-31953.696245,-1244910.984625,-30733.290998,-1211601.699782,-1489457.129175,-1711060.191519,-2169466.932948,-3568057.783611,-2621877.863631,-2628215.924289,-2477959.093804,-2480799.017048,-67635.663466,-2542113.785996,-2519228.639511
1.42578125,-343055.646784,-30652.824718,-1240427.403501,-29482.845006,-1203498.745382,-1481488.285242,-1705250.5261,-2161422.987154,-3560062.654026,-2613711.072649,-2620161.786099,-2469901.200521,-2471248.742491,-66581.018756,-2534113.291992,-2511213.661577
1.4296875,-346008.759261,-33584.479521,-1246428.042224,-31734.291522,-1215387.370037,-1493337.213199,-1712254.847557,-2173235.437064,-3571890.66075,-2625600.233746,-2632065.967568,-2481838.104944,-2481981.871364,-68728.395549,-2545972.948786,-2523077.073464
1.43359375,-346751.731247,-34714.762534,-1246864.705904,-32376.948878,-1216148.581046,-1494069.456347,-1712703.8494,-2174009.522678,-3572618.075921,-2626341.059964,-2632766.024204,-2482568.202325,-2483419.535568,-69406.994511,-2546659.594376,-2523825.409868
1.4375,-347503.822744,-35577.361056,-1247035.294418,-32849.017721,-1216169.502279,-1494083.940278,-1712970.461007,-2174042.782073,-3572619.685247,-2626333.013336,-2632741.88432,-2482568.202325,-2483902.333248,-70188.590311,-2546611.314608,-2523825.409868
1.44140625,-348238.748102,-36119.167342,-1247232.168583,-33130.649701,-1216130.878464,-1494038.342719,-1713246.192127,-2174015.95998,-3572555.848665,-2626283.660684,-2632673.756203,-2482507.047952,-2484178.600809,-70729.860154,-2546521.728816,-2523768.010589
1.4453125,-348819.178202,-36757.533164,-1247299.223816,-33428.911379,-1216111.030115,-1494009.9113,-1713223.125127,-2174005.231143,-3572518.834176,-2626250.401288,-2632623.867109,-2482467.351254,-2484324.512997,-71014.174344,-2546470.766839,-2523730.9961
1.44921875,-349424.82107,-37733.857362,-1247341.602724,-33921.901455,-1216116.394534,-1494018.49437,-1713171.626708,-2174021.324399,-3572518.297734,-2626225.724962,-2632593.826365,-2482467.351254,-2484444.139534,-71503.409326,-2546442.871862,-2523725.095239
1.453125,-350198.370242,-38662.438233,-1247508.972586,-34424.011043,-1216090.108882,-1494000.255346,-1713404.442478,-2174002.548933,-3572486.111222,-2626162.424822,-2632533.208434,-2482434.6283,-2484555.719442,-72280.713592,-2546366.697117,-2523681.643448
1.45703125,-350927.931181,-39207.46317,-1247692.972147,-34713.689651,-1216079.916487,-1493995.42737,-1713683.392249,-2174001.47605,-3572461.434896,-2626131.847636,-2632501.021922,-2482409.951974,-2484620.092466,-72864.362343,-2546314.662256,-2523656.43068
1.4609375,-351460.081513,-39703.135455,-1247740.179031,-34943.28677,-1216090.645324,-1494002.401114,-1713666.226109,-2174025.615934,-3572455.534036,-2626134.529845,-2632489.756643,-2482408.342649,-2484645.841676,-73099.323881,-2546303.933418,-2523659.11289
1.46484375,-351939.660542,-40521.209302,-1247712.284054,-35349.909705,-1216091.718208,-1494005.619765,-1713537.480061,-2174037.417655,-3572452.851826,-2626113.608612,-2632462.398107,-2482405.660439,-2484685.538374,-73446.401768,-2546283.012185,-2523654.821355
1.46875,-352583.927224,-41368.25101,-1247807.770706,-35809.640385,-1216109.420789,-1494034.051184,-1713686.6109,-2174061.557539,-3572467.335757,-2626094.296705,-2632449.523503,-2482420.14437,-2484766.541096,-74112.662567,-2546261.018069,-2523661.795099
1.47265625,-353243.75072,-41870.897039,-1247957.437987,-36087.517272,-1216101.374161,-1494031.905416,-1713958.586926,-2174061.557539,-3572449.096733,-2626069.083937,-2632425.383619,-2482404.587555,-2484844.325166,-74692.556225,-2546214.347626,-2523641.94675
1.4765625,-353754.97982,-42263.572486,-1248004.644871,-36265.615972,-1216078.843603,-1494007.229091,-1713981.117485,-2174049.219376,-3572413.69157,-2626040.652518,-2632386.223362,-2482367.036625,-2484828.23191,-74915.1796,-2546168.213626,-2523609.223796
1.48046875,-354208.809639,-43019.955518,-1247963.338848,-36634.687976,-1216072.942742,-1494003.473998,-1713823.940018,-2174053.510911,-3572403.499175,-2626011.148216,-2632353.500408,-2482355.771346,-2484823.940375,-75197.884464,-2546145.146626,-2523598.494959
1.484375,-354842.347484,-43906.157482,-1248030.930523,-37111.584796,-1216076.697836,-1494019.567254,-1713905.479181,-2174066.385515,-3572408.327151,-2625981.643913,-2632332.042734,-2482360.599322,-2484869.001492,-75830.885867,-2546116.715207,-2523596.349191
1.48828125,-355540.794795,-44496.779978,-1248178.988478,-37440.960102,-1216097.082626,-1494048.535114,-1714172.090789,-2174093.744051,-3572419.055989,-2625977.88882,-2632332.579176,-2482373.473927,-2484885.63119,-76483.199177,-2546097.403299,-2523602.786494
1.4921875,-356096.548569,-44872.825727,-1248247.116595,-37617.449476,-1216085.280905,-1494035.124068,-1714242.364674,-2174092.134725,-3572392.770337,-2625959.649796,-2632305.757082,-2482348.797601,-2484874.902353,-76755.175204,-2546058.779485,-2523584.54747
1.49609375,-356515.509667,-45541.768735,-1248186.498664,-37937.705271,-1216089.035998,-1494038.342719,-1714066.948183,-2174107.691539,-3572390.088128,-2625944.092982,-2632285.908733,-2482342.896741,-2484867.928608,-76980.480788,-2546047.514206,-2523586.693238
1.5,-357058.925278,-46379.154489,-1248197.227502,-38384.024904,-1216117.467417,-1494076.966533,-1714072.312602,-2174144.706028,-3572418.519547,-2625941.947215,-2632287.518059,-2482371.864602,-2484911.916841,-77521.750632,-2546046.441322,-2523609.223796
1.50390625,-357670.469006,-46937.054031,-1248300.760782,-38699.452722,-1216103.519929,-1494071.602115,-1714306.737698,-2174135.050074,-3572394.379663,-2625903.3234,-2632252.112896,-2482353.625578,-2484945.176237,-78144.559639,-2545993.870019,-2523582.938145
1.5078125,-358140.928524,-47182.207964,-1248346.358341,-38817.469933,-1216080.98937,-1494047.462231,-1714396.859932,-2174121.639028,-3572356.29229,-2625878.110633,-2632219.389942,-2482320.902624,-2484937.666051,-78390.786456,-2545950.418228,-2523552.360958
1.51171875,-358453.13769,-47656.959016,-1248252.481014,-39037.94754,-1216064.896114,-1494031.368975,-1714215.006139,-2174116.811051,-3572332.688848,-2625851.288539,-2632184.52122,-2482294.616973,-2484934.983842,-78500.220597,-2545921.986809,-2523533.049051
1.515625,-358862.442835,-48383.837746,-1248202.59192,-39421.503475,-1216061.141021,-1494034.051184,-1714155.461091,-2174120.029702,-3572328.933755,-2625820.174911,-2632156.089801,-2482287.643228,-2484991.310238,-78902.015555,-2545893.55539,-2523519.638004
1.51953125,-359341.485422,-48860.198123,-1248157.530803,-39696.161711,-1215814.377763,-1493798.016762,-1714221.979883,-2173881.849513,-3572080.024729,-2625548.735326,-2631892.160403,-2482038.19776,-2484800.873375,-79447.576934,-2545610.850526,-2523265.901001
1.5234375,-356345.457595,-45546.06027,-1242264.180453,-37417.893102,-1204773.867699,-1482848.165375,-1707035.268192,-2162918.050637,-3561116.762294,-2614459.409053,-2620848.96813,-2470981.594441,-2473517.891588,-77091.524254,-2534619.156673,-2512287.618195
1.52734375,-358190.817617,-47390.347408,-1244328.408757,-38535.301511,-1209722.543922,-1487857.459528,-1709171.379706,-2167838.831882,-3566101.380122,-2619377.508089,-2625867.381795,-2476015.56492,-2476412.531902,-78208.396221,-2539648.835617,-2517275.991115
1.53125,-360677.762112,-50250.655443,-1247592.121076,-40384.416626,-1216062.213905,-1494145.09465,-1713034.834031,-2174144.706028,-3572386.333035,-2625722.006049,-2632174.328825,-2482352.552694,-2482910.452236,-80176.064989,-2545916.62239,-2523587.766121
1.53515625,-361191.136979,-50870.245799,-1247620.552495,-40738.468258,-1216048.802858,-1494115.053906,-1713245.655685,-2174145.778912,-3572345.563453,-2625695.720398,-2632119.075313,-2482311.246671,-2483559.010453,-80787.072276,-2545835.083227,-2523558.798261
1.5390625,-361665.888031,-51129.883662,-1247684.389077,-40885.45333,-1216072.942742,-1494123.100534,-1713498.319804,-2174179.574749,-3572341.80836,-2625717.714514,-2632116.929545,-2482309.100903,-2483964.560505,-81157.753606,-2545810.406901,-2523562.553354
1.54296875,-361981.315849,-51454.430992,-1247633.427099,-41028.146866,-1216069.187649,-1494102.179301,-1713471.497711,-2174184.939168,-3572317.132034,-2625714.495863,-2632092.253219,-2482283.888135,-2484212.396647,-81240.902095,-2545782.511924,-2523538.949911
1.546875,-362334.831039,-52148.586768,-1247568.517633,-41377.906964,-1216050.412184,-1494079.112301,-1713406.588245,-2174173.137447,-3572288.164173,-2625673.18984,-2632043.437009,-2482254.383833,-2484402.83351,-81530.580703,-2545736.914365,-2523503.544748
1.55078125,-362886.293278,-52849.179846,-1247648.447472,-41770.045968,-1216069.724091,-1494104.86151,-1713629.748062,-2174199.95954,-3572303.720987,-2625666.752537,-2632036.999707,-2482267.794879,-2484569.66693,-82143.197315,-2545717.602458,-2523508.909167
1.5546875,-363444.729262,-53207.523013,-1247772.365543,-41973.357436,-1216064.896114,-1494101.106417,-1713921.572437,-2174201.032424,-3572283.872638,-2625649.049955,-2632016.614916,-2482247.410088,-2484668.372234,-82617.411925,-2545672.004899,-2523487.451492
1.55859375,-363835.795383,-53524.560156,-1247776.657078,-42114.978089,-1216063.286789,-1494091.986906,-1713927.473298,-2174206.396843,-3572268.852266,-2625643.149095,-2632002.130986,-2482233.4626,-2484681.246839,-82750.449508,-2545653.229434,-2523476.186213
1.5625,-364180.191062,-54184.920095,-1247709.601845,-42441.134744,-1216078.307161,-1494110.762371,-1713803.555227,-2174232.682494,-3572281.726871,-2625642.076211,-2631991.402148,-2482242.582112,-2484716.652002,-82988.093256,-2545654.838759,-2523485.305725
1.56640625,-364701.076114,-54906.970847,-1247766.464682,-42839.711051,-1216045.047765,-1494088.231813,-1713948.930973,-2174208.006168,-3572246.321708,-2625581.994722,-2631935.612194,-2482209.322716,-2484786.389445,-83564.231821,-2545585.101317,-2523441.317492
1.5703125,-365259.512098,-55302.328503,-1247884.481893,-43071.990379,-1216038.074021,-1494086.622487,-1714226.271418,-2174207.469726,-3572228.619126,-2625559.464164,-2631915.763845,-2482196.984553,-2484834.669213,-84085.116873,-2545544.868177,-2523424.687794
1.57421875,-365668.2808,-55561.429925,-1247907.012452,-43188.398264,-1216057.385928,-1494100.569975,-1714259.530814,-2174233.755378,-3572232.374219,-2625573.411652,-2631922.737589,-2482199.666762,-2484816.966631,-84236.39348,-2545543.795293,-2523434.343747
1.578125,-365997.656107,-56162.781258,-1247834.056358,-43481.831966,-1216047.729975,-1494093.059789,-1714098.598254,-2174233.755378,-3572218.42673,-2625548.735326,-2631894.842612,-2482186.792158,-2484824.476817,-84422.002366,-2545521.801176,-2523422.542026
1.58203125,-366483.135996,-56902.534592,-1247857.123358,-43885.772691,-1216057.385928,-1494114.517464,-1714159.216185,-2174250.921518,-3572227.0098,-2625532.64207,-2631882.504449,-2482196.984553,-2484877.584562,-84943.42386,-2545503.562153,-2523424.151352
1.5859375,-367022.260073,-57330.615202,-1247963.338848,-44139.509695,-1216045.584207,-1494109.689487,-1714412.953188,-2174247.702867,-3572207.161451,-2625505.283535,-2631855.145914,-2482179.818413,-2484885.63119,-85493.276774,-2545457.964594,-2523403.230119
1.58984375,-367425.127915,-57528.562251,-1247999.280453,-44227.486161,-1216060.068138,-1494120.418325,-1714486.445723,-2174268.624099,-3572207.697893,-2625516.012372,-2631861.046775,-2482181.964181,-2484890.459167,-85668.156823,-2545453.673059,-2523412.349631
1.59375,-367712.124313,-58027.453187,-1247913.986196,-44463.520582,-1216048.802858,-1494109.153045,-1714309.419907,-2174266.478332,-3572192.141079,-2625490.799605,-2631829.933146,-2482162.652273,-2484890.459167,-85785.10115,-2545430.069617,-2523396.256375
1.59765625,-368139.132039,-58746.285289,-1247901.648033,-44849.758726,-1216044.511324,-1494115.053906,-1714304.055489,-2174269.696983,-3572188.922428,-2625459.685976,-2631804.183937,-2482157.824297,-2484923.182121,-86234.639434,-2545402.17464,-2523384.454654
1.6015625,-368672.891697,-59229.082969,-1248000.889778,-45136.218683,-1216035.928254,-1494116.12679,-1714542.235678,-2174268.087657,-3572173.902055,-2625431.790999,-2631781.653378,-2482147.095459,-2484938.738935,-86809.168674,-2545360.332174,-2523368.361398
1.60546875,-369105.263842,-59422.202041,-1248057.752616,-45234.923987,-1216027.345184,-1494107.54372,-1714658.107121,-2174266.478332,-3572151.371497,-2625421.062162,-2631766.096564,-2482126.710668,-2484924.255004,-87040.91156,-2545329.754988,-2523353.341026
1.609375,-369397.624659,-59853.501302,-1247982.114313,-45436.089687,-1216022.517207,-1494100.033534,-1714488.055049,-2174269.696983,-3572137.96045,-2625404.968906,-2631744.102448,-2482110.617412,-2484895.823585,-87130.497352,-2545313.12529,-2523343.14863
1.61328125,-369781.717036,-60555.167264,-1247941.881173,-45802.479482,-1215994.085788,-1494080.185185,-1714407.588769,-2174248.77575,-3572109.529031,-2625351.861161,-2631694.749796,-2482083.795319,-2484935.520284,-87506.006659,-2545265.918406,-2523308.279909
1.6171875,-370275.779995,-61064.250596,-1248015.373709,-46102.886927,-1216024.126533,-1494118.808999,-1714600.707841,-2174283.644472,-3572132.05959,-2625359.371347,-2631705.478633,-2482110.080971,-2484968.243238,-88068.734177,-2545263.236196,-2523328.128258
1.62109375,-370208.724762,-60725.755778,-1247474.640307,-45903.330553,-1214866.484984,-1492966.531869,-1714020.277741,-2173137.804644,-3570966.907855,-2624194.756054,-2630537.108247,-2480935.273282,-2483832.595805,-87984.512804,-2544085.746299,-2522167.8045
1.625,-365432.246379,-55793.709254,-1240864.603623,-42798.941469,-1202978.396771,-1481193.778657,-1705803.061223,-2161337.156455,-3559179.670713,-2612247.659236,-2618664.040406,-2469047.185069,-2471329.208771,-84217.081573,-2532291.535412,-2510364.474102
1.62890625,-369442.685776,-60138.888376,-1245247.333675,-45411.949803,-1212316.240348,-1490549.324816,-1710846.687656,-2170614.382102,-3568521.805825,-2621572.091767,-2628064.647682,-2478477.296648,-2478872.117862,-87151.418585,-2541671.221455,-2519712.510075
1.6328125,-371230.110077,-62059.350259,-1247150.092977,-46640.93812,-1216052.02151,-1494230.388907,-1713329.877058,-2174333.533565,-3572203.406358,-2625320.747533,-2631767.169448,-2482190.010809,-2483149.705309,-88734.994976,-2545328.682104,-2523422.005584
1.63671875,-371258.005054,-61847.455722,-1247069.626697,-46556.716747,-1216074.015626,-1494222.342279,-1713523.532572,-2174365.720077,-3572188.385986,-2625363.662882,-2631768.778773,-2482173.381111,-2483813.82034,-88806.341744,-2545305.615104,-2523428.442887
1.640625,-371036.454563,-61572.797486,-1246858.268602,-46400.075722,-1216058.995254,-1494176.208279,-1713452.185804,-2174356.064124,-3572146.007078,-2625370.100185,-2631740.347354,-2482125.101343,-2484244.583159,-88502.179206,-2545277.183685,-2523393.574166
1.64453125,-370728.000489,-61541.683858,-1246597.021412,-46385.591791,-1216044.511324,-1494145.631092,-1713317.002453,-2174350.163263,-3572120.257869,-2625366.345092,-2631715.671029,-2482095.59704,-2484591.661047,-88293.503319,-2545258.944661,-2523361.924095
1.6484375,-370508.595766,-61410.792042,-1246455.40076,-46360.915465,-1216050.948626,-1494144.021767,-1713460.768874,-2174358.746333,-3572114.89345,-2625378.683255,-2631715.134587,-2482090.232621,-2484913.526167,-88332.663576,-2545249.82515,-2523350.658816
1.65234375,-370207.651878,-60837.872128,-1246348.112386,-46102.350486,-1216055.776603,-1494131.147162,-1713702.167714,-2174360.8921,-3572098.800194,-2625401.213813,-2631721.035447,-2482071.457156,-2485154.388565,-88182.996295,-2545242.314964,-2523332.956235
1.65625,-369661.554058,-60104.019654,-1246114.760174,-45717.721667,-1216055.240161,-1494105.397952,-1713670.517644,-2174359.819217,-3572080.024729,-2625433.936767,-2631730.691401,-2482050.535923,-2485331.414381,-87618.659451,-2545257.871778,-2523320.08163
1.66015625,-368982.418654,-59633.023695,-1245797.723031,-45472.567734,-1216051.485068,-1494084.476719,-1713482.226548,-2174357.673449,-3572068.223008,-2625448.957139,-2631731.227843,-2482035.515551,-2485489.664732,-87080.071816,-2545272.89215,-2523309.352792
1.6640625,-368383.213089,-59141.106503,-1245580.464075,-45260.136755,-1216071.869859,-1494097.351324,-1713550.354666,-2174378.05824,-3572081.634054,-2625482.752977,-2631758.049936,-2482048.926598,-2485695.658409,-86813.460209,-2545301.323569,-2523320.08163
1.66796875,-367723.926034,-58214.134957,-1245416.312863,-44827.76461,-1216080.452929,-1494089.841138,-1713772.441598,-2174381.813333,-3572077.878961,-2625518.694582,-2631784.872029,-2482042.489295,-2485891.996132,-86444.388204,-2545319.562592,-2523315.790095
1.671875,-366816.802837,-57013.578059,-1245142.191069,-44212.465788,-1216091.181766,-1494077.502975,-1713761.176319,-2174389.859961,-3572074.123868,-2625572.338769,-2631820.813634,-2482035.515551,-2486038.444762,-85622.559264,-2545360.868616,-2523319.545188
1.67578125,-365712.269033,-56025.988582,-1244744.687646,-43701.236689,-1216098.15551,-1494062.482603,-1713534.26141,-2174395.22438,-3572073.050985,-2625614.717676,-2631842.271309,-2482031.760458,-2486183.284066,-84722.409811,-2545409.148384,-2523321.154513
1.6796875,-364648.504811,-55071.658501,-1244426.577619,-43244.72466,-1216118.003859,-1494065.164812,-1713517.631712,-2174407.026101,-3572084.316264,-2625659.778793,-2631878.749356,-2482041.952853,-2486389.814185,-84076.533804,-2545457.428152,-2523331.346909
1.68359375,-363544.507449,-53708.023275,-1244183.569453,-42595.09356,-1216127.659813,-1494058.191068,-1713711.287226,-2174409.171868,-3572088.607799,-2625710.204328,-2631918.446054,-2482041.416412,-2486572.20442,-83407.054354,-2545493.369757,-2523332.419793
1.6875,-362196.965479,-51967.269417,-1243855.803472,-41710.500921,-1216165.747185,-1494065.701254,-1713724.16183,-2174439.749055,-3572111.138357,-2625807.836748,-2631994.084358,-2482062.337644,-2486727.772561,-82280.526433,-2545579.736898,-2523364.069863
1.69140625,-360591.931414,-50371.891304,-1243382.125304,-40887.599097,-1216182.376883,-1494051.217324,-1713471.497711,-2174450.477892,-3572115.966334,-2625877.037749,-2632042.900567,-2482061.264761,-2486891.38733,-80974.826929,-2545659.130294,-2523375.335142
1.6953125,-358980.996487,-48854.833705,-1242952.435369,-40143.017786,-1216192.032837,-1494040.488486,-1713374.401733,-2174449.405008,-3572124.549404,-2625931.218377,-2632086.352359,-2482065.019854,-2487076.459775,-79885.313497,-2545725.112644,-2523379.090235
1.69921875,-357350.213212,-46974.068519,-1242619.841411,-39233.748821,-1216189.887069,-1494017.421486,-1713527.824107,-2174435.45752,-3572115.966334,-2625985.399006,-2632126.585499,-2482053.218133,-2487162.826915,-78847.834927,-2545772.85597,-2523372.652933
1.703125,-355512.363376,-44660.931189,-1242238.431244,-38069.66997,-1216224.755791,-1494013.129951,-1713580.931852,-2174455.842311,-3572135.278241,-2626092.150938,-2632211.343314,-2482065.019854,-2487198.76852,-77390.858816,-2545869.415506,-2523397.329259
1.70703125,-353464.76477,-42493.706047,-1241730.957238,-36953.870887,-1216247.822791,-1494001.32823,-1713358.844919,-2174466.571148,-3572148.689288,-2626185.491822,-2632282.690082,-2482074.139365,-2487205.742264,-75712.868656,-2545976.703879,-2523418.250491
1.7109375,-351509.434165,-40616.159513,-1241290.002023,-36013.488294,-1216263.379605,-1493994.354486,-1713237.609057,-2174469.253358,-3572166.391869,-2626251.474172,-2632340.625804,-2482086.477528,-2487213.252451,-74312.755384,-2546068.435439,-2523430.052212
1.71484375,-349798.184609,-38702.134931,-1241045.384532,-35084.907423,-1216283.764396,-1493995.963811,-1713433.94678,-2174470.862683,-3572183.558009,-2626316.92008,-2632408.753921,-2482105.252994,-2487226.663497,-73216.268208,-2546147.292393,-2523443.999701
1.71875,-348247.331172,-36685.649954,-1240904.836763,-34074.250945,-1216300.930536,-1493995.42737,-1713642.622667,-2174472.472009,-3572195.35973,-2626389.876174,-2632479.564247,-2482111.690296,-2487233.1008,-72006.591798,-2546228.295115,-2523453.655655
1.72265625,-345864.992841,-34130.577341,-1238224.236753,-32478.336391,-1210596.944165,-1488319.872417,-1709964.240785,-2168794.234847,-3566535.898034,-2620714.321222,-2626818.493225,-2476394.82932,-2481428.7998,-70006.200076,-2540623.550489,-2517780.24647
1.7265625,-343640.368419,-31956.914897,-1235000.757575,-31006.339908,-1204615.080907,-1482467.828091,-1705313.289799,-2162842.948776,-3560672.588429,-2614699.198568,-2620940.699689,-2470487.531482,-2474209.901596,-68198.927426,-2534827.832559,-2511893.333422
1.73046875,-345020.633342,-33270.661029,-1240077.106962,-32317.403831,-1216007.496835,-1493811.427809,-1712366.427465,-2174147.388237,-3572017.26103,-2626114.145054,-2632393.733548,-2481940.565341,-2485264.89559,-69448.836976,-2546227.758673,-2523259.463699
1.734375,-344428.937963,-32359.246297,-1240409.700919,-31895.224082,-1216406.073142,-1494172.989627,-1712928.618542,-2174544.355219,-3572384.187267,-2626547.053641,-2632794.455623,-2482306.418694,-2486155.925531,-69048.651343,-2546616.679027,-2523651.066262
1.73828125,-343683.283768,-31473.044333,-1240482.657013,-31419.936588,-1216397.490072,-1494135.975139,-1712991.38224,-2174535.235707,-3572358.9745,-2626570.120641,-2632792.846297,-2482274.768624,-2486428.437999,-68324.991265,-2546627.407864,-2523637.655215
1.7421875,-342983.763574,-30994.001745,-1240526.108804,-31166.199585,-1216417.338421,-1494141.875999,-1712973.679659,-2174553.474731,-3572372.385546,-2626600.697827,-2632813.231088,-2482286.570345,-2486612.43756,-67783.184979,-2546669.786772,-2523651.602704
1.74609375,-342480.044661,-30553.582973,-1240698.306644,-30969.32542,-1216410.901119,-1494133.292929,-1713225.807336,-2174542.745893,-3572361.120267,-2626596.406292,-2632808.939553,-2482276.914391,-2486730.991212,-67576.654861,-2546671.396097,-2523634.973006
1.75,-342007.975818,-29787.543987,-1240927.903763,-30600.253415,-1216431.28591,-1494144.558209,-1713570.739457,-2174556.693382,-3572372.921988,-2626629.665688,-2632840.053182,-2482286.033903,-2486778.734538,-67288.585578,-2546699.291074,-2523643.019634
1.75390625,-341439.347439,-28997.901559,-1241059.868462,-30174.318573,-1216446.842724,-1494148.313302,-1713651.205737,-2174574.395963,-3572381.505058,-2626668.289503,-2632873.849019,-2482291.398322,-2486781.95319,-66684.552036,-2546742.742865,-2523653.212029
1.7578125,-340912.025084,-28668.526252,-1241140.871184,-29986.563919,-1216428.6037,-1494126.319185,-1713571.275898,-2174557.766266,-3572364.338918,-2626655.95134,-2632858.292205,-2482275.305066,-2486784.635399,-66217.847612,-2546757.226796,-2523635.509448
1.76171875,-340666.87115,-28566.065856,-1241365.103884,-29954.377407,-1216474.201259,-1494179.42693,-1713741.32797,-2174601.754499,-3572411.545803,-2626689.747177,-2632902.81688,-2482324.657717,-2486801.801539,-66179.223797,-2546810.870983,-2523677.888355
1.765625,-340583.186219,-28272.632155,-1241691.796981,-29829.922894,-1216480.638561,-1494192.301535,-1714087.869416,-2174604.97315,-3572419.055989,-2626691.356503,-2632916.764369,-2482330.558578,-2486766.396375,-66224.284914,-2546817.308285,-2523677.888355
1.76953125,-340468.38766,-27909.461011,-1241953.580612,-29625.002101,-1216452.207142,-1494159.578581,-1714215.542581,-2174574.932405,-3572384.187267,-2626669.362386,-2632896.91602,-2482294.616973,-2486641.40542,-65971.084353,-2546801.751471,-2523647.311169
1.7734375,-340354.661984,-27987.245081,-1242128.997103,-29635.730938,-1216475.274143,-1494184.791349,-1714113.082184,-2174602.827382,-3572408.863593,-2626682.773433,-2632916.227927,-2482319.829741,-2486503.003419,-65775.283071,-2546840.911727,-2523674.669704
1.77734375,-340482.335148,-28350.416225,-1242404.191781,-29830.995778,-1216494.049608,-1494217.514302,-1714216.079022,-2174624.285057,-3572437.295012,-2626676.872573,-2632924.810997,-2482348.261159,-2486443.994813,-65990.39626,-2546858.077867,-2523692.908727
1.78125,-340779.523942,-28532.270018,-1242787.747715,-29951.158756,-1216492.440282,-1494229.852465,-1714533.652608,-2174624.821499,-3572434.076361,-2626655.414898,-2632914.618601,-2482348.261159,-2486347.435277,-66350.885195,-2546841.448169,-2523687.544309
1.78515625,-341047.744876,-28550.509042,-1243128.388301,-29943.64857,-1216500.48691,-1494241.117745,-1714686.002098,-2174637.159662,-3572427.102617,-2626654.878456,-2632918.373694,-2482348.797601,-2486210.106159,-66413.112451,-2546844.66682,-2523693.445169
1.7890625,-341284.852181,-28953.913326,-1243353.693885,-30116.919293,-1216493.513166,-1494241.117745,-1714579.250166,-2174639.841871,-3572428.711942,-2626632.884339,-2632900.134671,-2482342.360299,-2486077.605018,-66451.199824,-2546841.448169,-2523689.690076
1.79296875,-341738.145559,-29708.15059,-1243649.809796,-30504.230321,-1216486.00298,-1494248.091489,-1714603.39005,-2174637.159662,-3572429.248384,-2626588.896106,-2632868.484601,-2482339.67809,-2485984.800575,-66868.015154,-2546818.381169,-2523680.570564
1.796875,-342394.213962,-30348.66218,-1244066.088684,-30859.354837,-1216475.274143,-1494258.283884,-1714883.412705,-2174635.013894,-3572412.618686,-2626543.298548,-2632840.589624,-2482335.922997,-2485888.777481,-67514.964046,-2546780.293796,-2523667.69596
1.80078125,-343038.480644,-30761.722417,-1244464.12855,-31059.447653,-1216444.696956,-1494236.82621,-1715067.948707,-2174611.946894,-3572370.776221,-2626494.482338,-2632794.992065,-2482301.054275,-2485733.20934,-67908.712376,-2546729.331819,-2523634.436564
1.8046875,-343617.301418,-31465.534146,-1244728.59439,-31382.922099,-1216436.650328,-1494236.82621,-1714961.733217,-2174613.019778,-3572375.604197,-2626461.759384,-2632766.560646,-2482290.325438,-2485566.375919,-68178.542635,-2546707.337702,-2523627.46282
1.80859375,-344359.20052,-32562.021322,-1245022.028091,-31934.384338,-1216440.405421,-1494258.820326,-1714913.989891,-2174626.967266,-3572382.0415,-2626422.062686,-2632738.665669,-2482299.981391,-2485404.370475,-68772.920224,-2546685.880028,-2523632.290796
1.8125,-345329.623858,-33621.49401,-1245446.89005,-32502.476275,-1216485.466538,-1494326.948443,-1715146.805662,-2174683.830104,-3572422.27464,-2626421.526244,-2632752.613157,-2482350.406927,-2485318.539777,-69671.460351,-2546688.562237,-2523672.523936
1.81640625,-346332.770149,-34429.911903,-1245884.626613,-32915.536513,-1216485.466538,-1494341.432374,-1715371.574804,-2174693.486058,-3572420.665314,-2626388.266848,-2632727.40039,-2482347.724718,-2485216.615822,-70387.073801,-2546651.547748,-2523668.232401
1.8203125,-347191.613578,-35359.029217,-1245950.072521,-33336.106936,-1215920.05681,-1493787.824367,-1714966.024752,-2174141.487377,-3571850.964052,-2625787.451957,-2632133.022801,-2481776.950571,-2484538.553302,-70850.559574,-2546059.315927,-2523103.895557
1.82421875,-346089.225541,-34562.949486,-1240254.66922,-32389.823483,-1204347.396415,-1482332.108299,-1707096.959006,-2162658.412773,-3560381.836937,-2614120.914235,-2620533.003871,-2470210.727478,-2472451.981598,-69945.582145,-2534531.716649,-2511610.628558
1.828125,-348706.52541,-37297.193682,-1243771.045658,-34086.052666,-1211325.968662,-1489384.173081,-1710923.398843,-2169595.678997,-3567384.012626,-2621023.311737,-2627551.809257,-2477290.687238,-2477252.599866,-71996.935844,-2541529.600803,-2518612.804247
1.83203125,-351052.385694,-39555.0775,-1246789.604043,-35499.576986,-1216473.128375,-1494497.536957,-1714393.64128,-2174724.063244,-3572476.99171,-2626149.550217,-2632648.006993,-2482423.899463,-2482540.84379,-73826.739052,-2546567.326375,-2523733.141867
