Timestamp,Fp1,Fp2,F3,F4,T5,T6,O1,O2,F7,F8,C3,C4,T3,T4,P3,P4
0.0,-1562.655158,-730650.452453,606527.4604,-821090.259682,-977099.892747,-980232.71325,-1207875.038132,0.0,-3121768.727513,-3128944.173925,-2869811.638571,-2852681.976876,-197123.074189,-2977081.772933,-2571850.368005,0.0
0.00390625,-287659.977396,-2577.066729,-742517.082991,547050.541288,-828583.816121,-986913.023819,-994013.904812,-1225548.65188,-3717934.276811,-3110530.270401,-3117688.014232,-2860167.486688,-2843423.526695,-175103.744877,-2962561.364479,-2567615.159466
0.0078125,-287606.869651,-2244.472771,-742553.024596,547205.036545,-828577.915261,-986900.685656,-994075.059184,-1225554.55274,-3717919.792881,-3110538.317029,-3117686.404906,-2860148.17478,-2843491.11837,-174663.326104,-2962551.708526,-2567608.722163
0.01171875,-287533.913557,-2341.032307,-742509.036363,547128.8618,-828573.623726,-986894.248354,-993906.079996,-1225558.844275,-3717913.355579,-3110527.05175,-3117666.556557,-2860132.081524,-2843186.955832,-174353.799147,-2962513.621153,-2567599.602652
0.015625,-287579.511115,-2649.486381,-742519.228759,546904.092658,-828580.061028,-986908.732284,-993903.397787,-1225564.208694,-3717918.183555,-3110505.594075,-3117647.781092,-2860131.008641,-2843155.842204,-174871.465548,-2962480.898199,-2567591.019582
0.01953125,-287637.983279,-2668.261846,-742593.794178,546722.238865,-828587.571214,-986919.997563,-994124.411836,-1225574.937531,-3717921.402207,-3110502.375424,-3117648.317534,-2860132.081524,-2843479.316649,-175088.724505,-2962471.242246,-2567586.728047
0.0234375,-287614.379837,-2603.888822,-742632.417993,546974.366543,-828606.346679,-986937.163703,-994223.653582,-1225606.587601,-3717929.448835,-3110528.124634,-3117672.457418,-2860138.518827,-2843606.989814,-174884.876595,-2962489.481269,-2567602.284861
0.02734375,-287537.66865,-2342.641633,-742583.601783,547133.689777,-828607.419563,-986935.554378,-994068.08544,-1225615.707113,-3717919.792881,-3110516.859355,-3117657.973487,-2860125.10778,-2843326.967159,-174677.273593,-2962490.017711,-2567599.602652
0.03125,-287551.079697,-2516.98524,-742570.727178,546912.139286,-828622.439935,-986957.548494,-994010.149719,-1225631.800369,-3717932.131044,-3110506.130517,-3117649.390417,-2860132.081524,-2843203.58553,-174784.025524,-2962489.481269,-2567603.357745
0.03515625,-287632.61886,-2571.165868,-742638.855295,546813.433983,-828632.095889,-986972.032424,-994212.388302,-1225640.383439,-3717935.886137,-3110497.011006,-3117645.098882,-2860132.081524,-2843488.972603,-174980.899689,-2962476.070222,-2567596.384
0.0390625,-287623.499349,-2236.426143,-742701.618993,546952.372426,-828634.241657,-986970.959541,-994357.764048,-1225652.18516,-3717927.839509,-3110509.349168,-3117653.681952,-2860126.180664,-2843696.575605,-174844.643455,-2962476.606664,-2567598.529768
0.04296875,-287532.840673,-2155.959863,-742675.333342,546977.048752,-828645.506936,-986972.568866,-994222.580698,-1225671.497067,-3717924.620858,-3110512.56782,-3117653.681952,-2860121.352687,-2843460.541184,-174600.562406,-2962487.871943,-2567608.722163
0.046875,-287539.814417,-2465.48682,-741466.729816,546787.684773,-825254.657895,-983612.297012,-991396.068501,-1222302.642143,-3714547.182864,-3107078.803429,-3114225.818423,-2856706.363762,-2840863.089664,-174645.087081,-2959094.340693,-2564213.581588
0.05078125,-287722.741094,-2618.372752,-738811.342575,546657.865841,-818521.239581,-977006.015421,-985707.102502,-1215604.628993,-3707887.793528,-3100270.283254,-3107511.712016,-2849997.621774,-2835845.748883,-174778.124664,-2952426.368287,-2557493.574321
0.0546875,-287740.443676,-2275.049958,-742168.395778,546823.626378,-827973.345277,-986414.669325,-993137.358801,-1225006.309152,-3717319.514432,-3109764.767857,-3117033.555154,-2859520.537796,-2842441.838079,-174769.005152,-2961874.182448,-2566929.58676
0.05859375,-287621.890023,-2103.38856,-742410.867502,546920.722356,-828676.084122,-987068.591961,-993577.241132,-1225725.677696,-3717983.093021,-3110485.209284,-3117704.64393,-2860177.142641,-2842683.773361,-174537.798707,-2962540.979688,-2567645.20021
0.0625,-287560.73565,-2381.265447,-742365.806385,546732.967703,-828678.766332,-987057.326681,-993440.448456,-1225737.479417,-3717964.317556,-3110471.261796,-3117668.165883,-2860149.784106,-2842406.969357,-174537.798707,-2962509.329618,-2567646.273094
0.06640625,-287610.088302,-2583.504031,-742419.987013,546552.186793,-828680.375657,-987058.399565,-993597.625923,-1225744.453161,-3717957.880254,-3110455.704982,-3117640.807347,-2860134.763734,-2842595.260453,-174763.640733,-2962475.533781,-2567635.544257
0.0703125,-287619.744256,-2343.714517,-742502.062619,546620.31491,-828665.891727,-987033.723239,-993847.607833,-1225738.015859,-3717928.912393,-3110446.049028,-3117619.886115,-2860103.650105,-2842937.510364,-174770.614477,-2962442.274385,-2567612.477256
0.07421875,-287542.496627,-2098.024142,-742507.96348,546731.358377,-828659.454424,-987013.338448,-993839.561205,-1225740.161626,-3717904.236067,-3110444.976144,-3117610.766603,-2860078.437338,-2842891.912805,-174502.393544,-2962434.227757,-2567604.430628
0.078125,-287497.971952,-2324.939051,-742470.412549,546576.863119,-828651.944238,-987003.146053,-993694.185459,-1225734.797208,-3717887.069927,-3110415.471842,-3117578.580091,-2860056.979663,-2842638.175802,-174438.556962,-2962414.91585,-2567586.728047
0.08203125,-287559.126325,-2580.821822,-742513.327898,546371.942326,-828665.355285,-987022.994402,-993796.645856,-1225749.281138,-3717899.40809,-3110404.743004,-3117568.924137,-2860061.80764,-2842774.432036,-174649.378616,-2962406.33278,-2567582.436512
0.0859375,-287594.531488,-2484.798728,-742597.012829,546296.304023,-828677.157006,-987035.869007,-994045.01844,-1225767.520162,-3717904.236067,-3110412.789632,-3117575.897881,-2860061.80764,-2843131.70232,-174721.798268,-2962402.041245,-2567583.509396
0.08984375,-287552.15258,-2458.513076,-742615.788295,546491.568862,-828670.183262,-987025.676611,-994076.66851,-1225770.202371,-3717883.314834,-3110411.716749,-3117567.314812,-2860039.277081,-2843153.696436,-174344.679635,-2962390.775966,-2567574.926326
0.09375,-287499.044835,-2299.726284,-742561.607666,546560.769863,-828678.22989,-987032.650355,-993910.371531,-1225784.149859,-3717891.361462,-3110411.716749,-3117554.440207,-2860034.985546,-2842855.9712,-173987.945794,-2962368.781849,-2567575.462768
0.09765625,-287560.199208,-2487.480937,-742583.601783,546340.828698,-828692.177378,-987056.790239,-993952.750439,-1225797.024464,-3717909.064044,-3110400.987911,-3117546.930021,-2860043.568616,-2842895.667898,-174517.413916,-2962341.423314,-2567575.462768
0.1015625,-287606.869651,-2402.723122,-742668.89604,546315.61593,-828708.807076,-987076.638589,-994194.149279,-1225816.336371,-3717916.037788,-3110406.35233,-3117555.513091,-2860048.396593,-2843242.745786,-174734.672872,-2962336.058895,-2567577.072093
0.10546875,-287559.126325,-2068.519839,-742707.519854,546467.96542,-828725.973216,-987084.685217,-994270.860466,-1225842.622023,-3717918.719997,-3110429.955772,-3117574.288556,-2860048.933035,-2843330.18581,-174507.757963,-2962352.688593,-2567589.946698
0.109375,-287487.779556,-2148.449677,-742662.995179,546401.446629,-828728.118983,-987083.075891,-994109.391464,-1225853.35086,-3717914.428462,-3110421.909144,-3117561.950393,-2860041.959291,-2843032.997016,-174339.315216,-2962355.907244,-2567591.019582
0.11328125,-287524.794045,-2469.778355,-742668.359598,546175.068161,-828709.343518,-987072.347054,-994092.225324,-1225833.502511,-3717892.970788,-3110377.384469,-3117519.035044,-2860016.746523,-2842985.790132,-174485.227404,-2962318.892755,-2567558.83307
0.1171875,-287580.583999,-2464.950379,-742742.388575,546108.012928,-828720.072355,-987087.367426,-994313.239373,-1225847.986442,-3717899.40809,-3110373.092934,-3117520.644369,-2860019.428732,-2843309.264578,-174663.862546,-2962310.309686,-2567558.83307
0.12109375,-287548.397487,-2117.872491,-742793.350553,546241.050511,-828735.092728,-987094.34117,-994429.647258,-1225873.735651,-3717901.017416,-3110394.550609,-3117537.810509,-2860020.501616,-2843470.197138,-174484.690962,-2962323.18429,-2567569.561907
0.125,-287477.587161,-2109.825863,-742755.799622,546089.237462,-828758.159728,-987113.116635,-994272.469791,-1225909.677256,-3717913.89202,-3110410.107423,-3117551.221556,-2860032.303337,-2843210.022832,-174272.259983,-2962344.641965,-2567591.556024
0.12890625,-287500.117719,-2435.446076,-742739.706366,546086.555253,-828744.212239,-987112.043752,-994197.904372,-1225902.703512,-3717902.626741,-3110371.483609,-3117515.279951,-2860014.600756,-2843080.740342,-174373.647496,-2962317.819872,-2567570.098349
0.1328125,-287566.636511,-2513.230147,-742806.761599,546051.15009,-828723.291006,-987099.169147,-994390.487002,-1225884.464489,-3717882.24195,-3110338.760655,-3117483.093439,-2859991.533755,-2843367.200299,-174584.46915,-2962277.05029,-2567535.766069
0.13671875,-287556.444115,-2251.446515,-742868.452414,546176.677487,-828728.655425,-987099.169147,-994543.372934,-1225900.557745,-3717873.122439,-3110345.734399,-3117491.140067,-2859985.096453,-2843589.287232,-174468.061265,-2962279.732499,-2567537.375395
0.140625,-287475.977835,-2349.078935,-742834.656576,546209.936882,-828743.675797,-987108.825101,-994416.772654,-1225918.260326,-3717868.830904,-3110348.95305,-3117490.603625,-2859978.122709,-2843362.908764,-174222.370889,-2962290.461336,-2567545.422023
0.14453125,-287488.315998,-2381.801889,-742800.324297,546005.552531,-828760.841937,-987128.67345,-994289.635931,-1225931.134931,-3717874.195322,-3110332.323352,-3117478.265462,-2859981.34136,-2843139.748948,-174262.604029,-2962288.852011,-2567545.958465
0.1484375,-287592.922162,-2492.845356,-740972.130415,545878.415808,-823331.513802,-981751.380176,-990065.692671,-1220531.311098,-3712473.835048,-3104856.861217,-3112018.896582,-2854526.264015,-2839480.678973,-174463.76973,-2956857.378108,-2562117.703213
0.15234375,-287695.382559,-2226.233748,-739617.614701,545974.975345,-820301.153696,-978820.261815,-987304.626382,-1217519.726458,-3709504.092873,-3101783.049319,-3109043.253546,-2851543.110793,-2837048.98799,-174168.726703,-2953897.828328,-2559102.363479
0.15625,-287603.651,-1993.954419,-742529.957596,546131.61637,-828661.06375,-987119.553938,-993705.98718,-1225843.158465,-3717837.717275,-3110192.312025,-3117443.933182,-2859944.326871,-2842572.193452,-174102.207911,-2962229.306964,-2567457.445557
0.16015625,-287528.549138,-2264.857562,-742514.937224,545965.319391,-828765.669914,-987194.655799,-993607.818318,-1225964.930769,-3717917.110672,-3110291.55377,-3117504.014671,-2860010.845662,-2842300.753868,-174198.231005,-2962287.779127,-2567570.098349
0.1640625,-287573.073813,-2492.845356,-742553.561038,545776.491854,-828784.445379,-987205.921078,-993730.127064,-1225990.143536,-3717918.719997,-3110295.308864,-3117489.530741,-2860006.017686,-2842433.791451,-174431.583218,-2962265.248569,-2567579.217861
0.16796875,-287584.875534,-2278.805051,-742625.98069,545833.891134,-828796.783542,-987206.45752,-993968.843695,-1226008.919002,-3717911.746253,-3110309.256352,-3117491.140067,-2859994.752406,-2842749.75571,-174463.76973,-2962254.519731,-2567582.972954
0.171875,-287509.237231,-2023.458722,-742629.199341,545948.153251,-828797.319984,-987189.291381,-993970.989462,-1226020.184281,-3717891.897904,-3110316.766538,-3117484.166322,-2859973.831174,-2842703.085268,-174201.986099,-2962248.082429,-2567579.217861
0.17578125,-287467.394765,-2239.644794,-742579.84669,545800.631738,-828809.121705,-987195.728683,-993824.540833,-1226036.277537,-3717891.897904,-3110307.110585,-3117467.000183,-2859966.857429,-2842434.327893,-174131.175772,-2962245.936661,-2567582.436512
0.1796875,-287529.622022,-2510.011495,-742615.251853,545590.346526,-828811.267473,-987206.45752,-993923.246136,-1226038.959746,-3717895.116555,-3110286.725794,-3117444.469624,-2859962.565894,-2842559.318848,-174341.460984,-2962224.478987,-2567570.098349
0.18359375,-287559.662766,-2360.880656,-742695.718133,545606.439782,-828790.882682,-987185.536287,-994183.420442,-1226021.793606,-3717865.612252,-3110259.9037,-3117418.183973,-2859930.379382,-2842938.046806,-174434.265427,-2962184.782289,-2567536.302511
0.1875,-287495.289742,-2048.135048,-742721.467343,545748.060435,-828769.961449,-987154.422659,-994234.918861,-1226011.601211,-3717829.670647,-3110246.492654,-3117399.944949,-2859895.510661,-2842996.518969,-174184.819959,-2962165.470381,-2567512.699069
0.19140625,-287418.578555,-2189.755701,-742672.651133,545637.016968,-828772.643658,-987158.714194,-994071.840533,-1226024.475816,-3717826.988438,-3110234.154491,-3117386.533902,-2859891.755568,-2842720.78785,-174055.001027,-2962166.543265,-2567511.089744
0.1953125,-287481.342254,-2498.746216,-742690.890156,545283.501778,-828808.048821,-987202.165985,-994106.709255,-1226062.563188,-3717860.247834,-3110241.664677,-3117398.335624,-2859919.114103,-2842756.729455,-174240.073471,-2962181.563637,-2567530.401651
0.19921875,-287542.496627,-2492.308914,-742772.42932,545403.128314,-828810.194589,-987211.821939,-994351.863188,-1226073.292026,-3717860.247834,-3110240.055351,-3117396.189856,-2859915.895452,-2843115.609064,-174388.667868,-2962167.079707,-2567525.037232
0.203125,-287504.945696,-2438.664727,-742808.907367,545663.839062,-828803.757287,-987196.265125,-994443.058305,-1226070.609816,-3717836.644392,-3110236.8367,-3117385.461019,-2859888.536917,-2843238.454251,-174138.149516,-2962155.277986,-2567510.553302
0.20703125,-287443.791323,-2205.312515,-742761.164041,545604.830456,-828838.626008,-987224.160102,-994282.125745,-1226107.624305,-3717868.830904,-3110262.049468,-3117404.236484,-2859907.848824,-2842945.02055,-173682.710371,-2962170.8348,-2567540.057604
0.2109375,-287471.6863,-2398.968029,-742764.919134,545374.160454,-828838.626008,-987232.743172,-994255.303652,-1226109.233631,-3717868.294462,-3110238.982468,-3117382.242368,-2859902.484405,-2842874.210223,-174027.10605,-2962128.455893,-2567528.792325
0.21484375,-287531.231347,-2416.134169,-742843.239646,545293.157732,-828839.16245,-987239.180474,-994474.708375,-1226112.452282,-3717865.075811,-3110226.107863,-3117370.440646,-2859897.119987,-2843191.247367,-174384.912775,-2962105.388892,-2567516.454162
0.21875,-287504.409254,-2074.957141,-742898.493159,545440.142803,-828838.626008,-987232.743172,-994605.600191,-1226121.571794,-3717852.737648,-3110231.472281,-3117372.586414,-2859882.636056,-2843364.51809,-174223.980215,-2962101.633799,-2567511.089744
0.22265625,-287426.625183,-2049.744374,-742865.233763,545435.851268,-828822.532752,-987212.358381,-994467.198189,-1226114.061608,-3717825.915554,-3110208.941723,-3117344.691437,-2859850.985986,-2843107.025994,-174007.257701,-2962083.931218,-2567492.314278
0.2265625,-287443.791323,-2377.510354,-742846.458298,545160.656591,-828826.824287,-987222.550776,-994384.586142,-1226119.426026,-3717826.988438,-3110184.801839,-3117325.37953,-2859847.230893,-2842949.312085,-174101.135028,-2962074.275264,-2567485.876976
0.23046875,-287513.528766,-2478.897867,-742913.513531,544997.041821,-828826.287845,-987234.888939,-994568.04926,-1226126.936212,-3717827.52488,-3110171.390792,-3117315.187134,-2859847.767335,-2843213.241483,-174320.003309,-2962056.036241,-2567476.221022
0.234375,-287506.555022,-2163.470049,-742977.886555,545309.78743,-828831.115822,-987234.888939,-994734.882681,-1226140.883701,-3717822.696903,-3110184.265397,-3117324.843088,-2859842.402916,-2843448.739463,-174225.053099,-2962057.645566,-2567478.36679
0.23828125,-287426.625183,-2041.161304,-742951.600903,545367.723151,-828827.897171,-987222.550776,-994620.620563,-1226147.857445,-3717808.212973,-3110174.073002,-3117311.432041,-2859823.627451,-2843243.282228,-173978.28984,-2962057.109124,-2567473.002371
0.2421875,-287420.724323,-2339.959424,-742916.19574,545164.411684,-828835.943799,-987233.279614,-994489.728748,-1226157.513399,-3717810.895182,-3110155.297536,-3117295.338785,-2859820.945242,-2843003.492713,-174011.012794,-2962052.817589,-2567471.929487
0.24609375,-287489.925324,-2508.938612,-742730.050412,545004.552007,-828132.668511,-986543.951815,-994058.429487,-1225460.675414,-3717110.838546,-3109428.418807,-3116573.824474,-2859108.014,-2842691.819989,-174237.927704,-2961328.084627,-2566756.852479
0.25,-287514.065208,-2356.05268,-739218.501952,545079.117427,-818664.46956,-977180.895469,-986380.873487,-1216049.875742,-3707692.528688,-3099901.21125,-3107094.896685,-2849611.38363,-2835935.334675,-174054.464585,-2951903.873909,-2557307.428993
0.25390625,-287550.543255,-2251.446515,-741430.788211,545209.4728,-825523.951712,-984053.788668,-991352.080268,-1222869.661196,-3714567.567655,-3106766.594263,-3114040.745978,-2856562.0609,-2840192.000889,-173759.958,-2958808.417178,-2564161.010285
0.2578125,-287506.01858,-2235.353259,-742628.126458,545101.647985,-828904.071916,-987381.874011,-993820.78574,-1226239.052563,-3717909.600486,-3110152.615327,-3117388.143228,-2859919.114103,-2842183.273099,-173942.884677,-2962130.60166,-2567537.911837
0.26171875,-287565.563627,-2458.513076,-742662.995179,544900.482285,-828898.707497,-987362.025662,-993920.563927,-1226239.589004,-3717881.169067,-3110131.157652,-3117338.254134,-2859878.344521,-2842278.759751,-174188.575052,-2962071.593055,-2567523.964348
0.265625,-287581.656883,-2263.248237,-742742.388575,544941.251867,-828917.482962,-987366.317197,-994165.181418,-1226268.556865,-3717883.314834,-3110155.297536,-3117344.154995,-2859875.662312,-2842598.479104,-174246.510773,-2962062.473543,-2567537.911837
0.26953125,-287505.482138,-1995.027303,-742757.94539,545062.487729,-828904.608358,-987334.130685,-994183.420442,-1226265.338214,-3717850.59188,-3110152.615327,-3117323.770204,-2859838.111381,-2842575.948545,-173991.164445,-2962038.870101,-2567525.573674
0.2734375,-287432.526044,-2197.802329,-742712.347831,544920.867076,-828883.150683,-987308.381475,-994041.799789,-1226250.854284,-3717818.94181,-3110113.455071,-3117276.56332,-2859801.633334,-2842305.581845,-173911.234607,-2962006.147147,-2567494.996487
0.27734375,-287480.26937,-2483.725844,-742745.070785,544651.036817,-828899.780381,-987332.521359,-994129.776255,-1226270.702633,-3717832.889299,-3110104.872001,-3117269.589575,-2859809.679962,-2842401.068497,-174126.884237,-2961998.636961,-2567497.142255
0.28125,-287517.820301,-2359.271331,-742830.365042,544614.022328,-828916.410079,-987352.90615,-994386.731909,-1226298.59761,-3717843.081694,-3110120.428815,-3117280.854855,-2859819.872358,-2842763.166757,-174241.682797,-2961998.100519,-2567505.188883
0.28515625,-287464.176114,-2044.916397,-742864.697321,544946.079844,-828894.952404,-987324.474731,-994451.641375,-1226287.868772,-3717808.749415,-3110110.236419,-3117262.615831,-2859783.394311,-2842830.758432,-174006.721259,-2961979.861495,-2567482.658325
0.2890625,-287411.604811,-2173.126003,-742819.636204,544864.004238,-828895.488846,-987318.037429,-994293.927466,-1226291.087424,-3717796.411252,-3110090.38807,-3117241.694598,-2859768.373939,-2842555.027313,-173873.683676,-2961971.814867,-2567473.538813
0.29296875,-287466.321882,-2490.699588,-742836.265902,544629.579142,-828894.952404,-987327.15694,-994317.530908,-1226294.842517,-3717795.338368,-3110065.711745,-3117217.554714,-2859763.545962,-2842565.75615,-174056.073911,-2961950.893635,-2567460.127766
0.296875,-287519.429626,-2447.784239,-742916.732182,544579.153607,-828879.932032,-987316.428103,-994557.856865,-1226283.040796,-3717775.490019,-3110041.571861,-3117192.341947,-2859739.94252,-2842910.68827,-174222.907331,-2961918.707123,-2567431.696347
0.30078125,-287479.732928,-2104.461444,-742959.647531,544732.039539,-828902.999032,-987330.375592,-994654.952843,-1226317.373075,-3717786.755298,-3110073.221931,-3117219.700482,-2859748.52559,-2843035.679225,-174022.278073,-2961940.701239,-2567452.081138
0.3046875,-287404.631067,-2146.30391,-742917.805066,544687.514864,-828906.217683,-987328.229824,-994499.384701,-1226325.956145,-3717777.099344,-3110062.493093,-3117208.435203,-2859738.869636,-2842757.802338,-173837.742071,-2961940.701239,-2567452.61758
0.30859375,-287437.354021,-2472.460565,-742916.19574,544456.844861,-828916.410079,-987342.177313,-994456.469352,-1226335.075657,-3717782.463763,-3110042.108302,-3117190.732621,-2859739.94252,-2842658.560593,-173967.024561,-2961931.045286,-2567446.180278
0.3125,-287497.43551,-2520.203891,-742989.151834,544347.947162,-828902.46259,-987336.276452,-994665.68168,-1226323.273936,-3717767.979833,-3110014.213325,-3117165.519853,-2859719.021287,-2842960.040922,-174165.508052,-2961897.249448,-2567418.821742
0.31640625,-287477.050719,-2435.982518,-743044.405346,544375.305697,-828916.410079,-987343.786638,-994801.401472,-1226346.877378,-3717765.297623,-3110031.379465,-3117180.540226,-2859717.411961,-2843149.404901,-174013.695003,-2961904.223192,-2567425.259045
0.3203125,-287408.38616,-2258.956702,-743005.24509,544573.789188,-828945.914381,-987370.608732,-994660.853703,-1226385.501192,-3717788.364624,-3110059.274442,-3117198.242807,-2859732.968775,-2842891.912805,-173579.713533,-2961927.826634,-2567452.081138
0.32421875,-287423.406532,-2365.172191,-742984.323857,544413.929512,-828957.716102,-987391.529964,-994564.294167,-1226399.448681,-3717804.45788,-3110051.764256,-3117188.586854,-2859738.869636,-2842711.131896,-173653.742511,-2961901.004541,-2567454.763347
0.328125,-287489.925324,-2477.824983,-743052.988416,544277.673278,-828968.981382,-987412.987639,-994738.637774,-1226412.859727,-3717813.577391,-3110045.326954,-3117187.51397,-2859745.84338,-2842965.941783,-174137.613074,-2961882.765518,-2567452.081138
0.33203125,-287482.951579,-2172.053119,-743122.189417,544395.154046,-828966.835614,-987403.868127,-994911.372055,-1226416.614821,-3717803.384996,-3110047.472721,-3117186.441086,-2859732.432334,-2843219.142344,-174070.021399,-2961873.646006,-2567446.180278
0.3359375,-287404.094625,-2032.578234,-743104.486836,544450.944001,-828938.940637,-987367.926522,-994807.838775,-1226398.375797,-3717764.22474,-3110019.577744,-3117152.645248,-2859689.516984,-2843030.314807,-173818.430164,-2961847.360354,-2567419.358184
0.33984375,-287401.412416,-2322.256842,-743065.326579,544252.996952,-828953.424567,-987388.847755,-994661.390145,-1226417.687704,-3717772.271368,-3110007.776023,-3117144.062179,-2859694.881403,-2842777.114246,-173835.596303,-2961847.896796,-2567423.113277
0.34375,-287472.222742,-2508.40217,-743116.288557,543979.4116,-828963.080521,-987409.768988,-994786.917542,-1226433.244518,-3717784.609531,-3109995.974302,-3117140.843527,-2859704.537356,-2842966.478225,-174064.656981,-2961840.923052,-2567422.576835
0.34765625,-287515.674533,-2277.732167,-741788.058494,544137.66195,-824867.346867,-983345.685404,-991691.111528,-1222371.843144,-3713703.359807,-3105887.902485,-3113032.77171,-2855582.518051,-2840347.56903,-174050.709492,-2957750.553817,-2563332.2076
0.3515625,-287560.73565,-2205.312515,-739580.600212,544506.733955,-819470.741686,-978053.686387,-986838.994841,-1217010.106684,-3708365.226789,-3100436.580233,-3107672.644576,-2850208.443428,-2835911.731233,-173582.932184,-2952433.342032,-2557958.669419
0.35546875,-287481.342254,-2278.268609,-742646.901923,544300.740278,-828591.862749,-987130.282775,-993681.310854,-1226078.656444,-3717467.572387,-3109573.258111,-3116829.707245,-2859389.645981,-2841760.020466,-173671.981534,-2961528.713885,-2567062.087901
0.359375,-287525.866929,-2479.970751,-742829.292158,544096.355927,-829017.797591,-987528.859082,-994065.403231,-1226512.637915,-3717863.466485,-3109988.464116,-3117206.289435,-2859776.420567,-2842083.494912,-174000.820398,-2961891.885029,-2567482.658325
0.36328125,-287550.006813,-2297.044074,-742903.321135,544130.688206,-829002.240777,-987494.526803,-994303.046978,-1226506.200612,-3717825.915554,-3109979.344604,-3117173.030039,-2859732.968775,-2842390.339659,-174068.412074,-2961841.459494,-2567463.882859
0.3671875,-287470.613417,-2014.875652,-742916.19574,544257.824929,-828986.147521,-987460.194523,-994326.113978,-1226502.981961,-3717790.510391,-3109975.589511,-3117148.890155,-2859692.199194,-2842374.246403,-173813.602187,-2961816.783168,-2567450.471813
0.37109375,-287395.511555,-2198.338771,-742871.671065,544128.542439,-828983.465312,-987448.392802,-994168.400069,-1226507.273496,-3717773.880693,-3109958.423371,-3117117.776527,-2859670.741519,-2842094.223749,-173714.360441,-2961798.544144,-2567441.352301
0.375,-287448.082858,-2492.845356,-742903.857577,543908.064831,-828995.267033,-987467.704709,-994238.137512,-1226521.220985,-3717781.927321,-3109945.012324,-3117103.829039,-2859673.423728,-2842184.882424,-173915.526142,-2961784.060214,-2567437.060766
0.37890625,-287492.071091,-2386.629866,-742990.76116,543897.335994,-829005.459428,-987477.360663,-994494.556724,-1226535.168473,-3717781.390879,-3109946.085208,-3117104.901922,-2859668.595751,-2842560.391731,-174037.298445,-2961773.331377,-2567431.159905
0.3828125,-287440.03623,-2058.327443,-743027.775649,544045.393949,-829002.777219,-987462.876733,-994566.976376,-1226543.751543,-3717767.443391,-3109955.20472,-3117107.584132,-2859653.038937,-2842642.467337,-173801.264024,-2961770.649167,-2567427.404812
0.38671875,-287370.835229,-2165.079375,-742986.469625,543963.318344,-828995.803475,-987450.53857,-994408.726026,-1226542.142217,-3717749.204367,-3109933.747045,-3117080.762038,-2859631.044821,-2842364.59045,-173649.987417,-2961758.311004,-2567414.530207
0.390625,-287425.015858,-2488.553821,-743000.953555,543732.111899,-828992.048382,-987458.585198,-994414.090444,-1226537.314241,-3717742.767065,-3109899.414766,-3117049.64841,-2859619.779541,-2842359.762473,-173817.893722,-2961733.098237,-2567394.145417
0.39453125,-287484.560905,-2479.434309,-743082.492719,543669.3482,-829015.651824,-987483.261524,-994650.661308,-1226564.136334,-3717759.396763,-3109912.825812,-3117064.668782,-2859635.872797,-2842698.793733,-173990.091561,-2961736.85333,-2567404.874254
0.3984375,-287459.348137,-2381.801889,-743132.381813,543703.144038,-829026.380661,-987485.407291,-994762.777658,-1226581.838916,-3717750.813693,-3109924.627534,-3117073.788294,-2859626.216844,-2842856.507642,-173802.336908,-2961739.535539,-2567405.947138
0.40234375,-287388.001369,-2288.461004,-743090.539347,543795.948481,-829024.771336,-987483.261524,-994610.964609,-1226589.349102,-3717739.011972,-3109912.825812,-3117058.767922,-2859612.805797,-2842594.187569,-173604.926301,-2961736.316888,-2567401.655603
0.40625,-287415.359904,-2409.696866,-743084.102045,543677.93127,-829026.917103,-987495.599687,-994559.46619,-1226594.177079,-3717740.084856,-3109888.149487,-3117037.846689,-2859609.050704,-2842489.044963,-173724.552837,-2961721.832957,-2567391.463207
0.41015625,-287484.024463,-2468.705472,-743157.59458,543571.715781,-829040.864592,-987515.448036,-994771.89717,-1226611.343218,-3717754.568786,-3109890.295254,-3117042.138224,-2859619.2431,-2842791.061734,-173931.619398,-2961718.077864,-2567394.145417
0.4140625,-287469.004091,-2138.793723,-743219.821837,543707.435573,-829033.890847,-987500.964105,-994930.14752,-1226610.270335,-3717732.038228,-3109886.003719,-3117033.555154,-2859597.248983,-2843009.393574,-173802.336908,-2961704.130376,-2567380.197928
0.41796875,-287391.756462,-2073.347816,-743192.463302,543724.601713,-829039.255266,-987501.500547,-994803.010798,-1226624.754265,-3717722.918716,-3109882.785068,-3117027.654293,-2859585.447262,-2842779.260013,-173573.27623,-2961710.031236,-2567383.416579
0.421875,-287399.266648,-2393.067168,-743168.85986,543506.269873,-829037.645941,-987505.792082,-994696.795308,-1226626.900032,-3717718.627181,-3109854.890091,-3117004.587293,-2859576.864192,-2842588.286708,-173639.25858,-2961696.083748,-2567372.687742
0.42578125,-287472.222742,-2533.614937,-743232.696442,543357.139034,-829042.473917,-987518.130245,-994862.019403,-1226633.337335,-3717726.137367,-3109843.08837,-3116994.93134,-2859576.864192,-2842828.076223,-173871.001467,-2961677.844724,-2567363.56823
0.4296875,-287475.977835,-2244.472771,-743304.579652,543426.876477,-829055.884964,-987527.249757,-995039.581661,-1226654.795009,-3717728.283134,-3109859.181626,-3117009.41527,-2859577.937076,-2843091.46918,-173775.514814,-2961683.745585,-2567370.541974
0.43359375,-287399.80309,-2090.513955,-743290.632163,543383.961127,-829059.640057,-987526.176873,-994935.511939,-1226675.716242,-3717733.647553,-3109873.665556,-3117013.170363,-2859575.791308,-2842913.906922,-173213.86018,-2961679.990492,-2567381.270812
0.4375,-287391.756462,-2380.192564,-743253.617675,543426.876477,-829037.109499,-987511.692943,-994785.844658,-1226659.622986,-3717711.653437,-3109832.359532,-3116969.18213,-2859545.214122,-2842660.169919,-173408.588577,-2961618.299677,-2567350.693625
0.44140625,-287467.931207,-2591.550659,-743304.04321,543285.255824,-829082.170615,-987564.800687,-994906.544078,-1226706.829871,-3717755.105228,-3109853.817207,-3116997.613549,-2859585.447262,-2842829.685549,-173862.954839,-2961635.465817,-2567380.73437
0.4453125,-287487.779556,-2358.198447,-743380.754397,543353.383941,-829077.879081,-987558.363385,-995111.464871,-1226710.048522,-3717742.230623,-3109850.598556,-3116991.176247,-2859570.963332,-2843130.092994,-173880.65742,-2961618.299677,-2567371.614858
0.44921875,-287493.143975,-2166.688701,-741183.48851,543525.045338,-822681.346259,-981206.355239,-989930.509321,-1220355.894608,-3711365.546151,-3103424.561432,-3110572.649309,-2853134.733812,-2838499.526799,-173616.19158,-2955245.90674,-2560990.638851
0.453125,-287556.444115,-2526.104751,-740387.945221,543393.617081,-821580.031106,-980198.917413,-988337.813418,-1219257.798106,-3710320.557394,-3102262.628348,-3109514.249505,-2852095.109474,-2836861.233337,-173499.247253,-2954223.448542,-2559898.44321
0.45703125,-287550.006813,-2600.670171,-743007.927299,543150.072473,-829069.296011,-987638.829665,-994190.930628,-1226703.611219,-3717783.000205,-3109765.840741,-3117014.779689,-2859617.633774,-2842007.320167,-173776.051256,-2961666.579445,-2567364.641114
0.4609375,-287556.444115,-2420.962145,-743079.81051,543169.384381,-829098.263871,-987638.293223,-994408.189584,-1226744.380801,-3717776.562903,-3109800.709462,-3117012.633921,-2859603.149844,-2842271.786007,-173872.07435,-2961642.439561,-2567392.536091
0.46484375,-287484.560905,-2135.03863,-743092.685114,543297.593987,-829105.237616,-987619.517758,-994425.892165,-1226765.838476,-3717757.787437,-3109820.021369,-3117005.660177,-2859578.473518,-2842247.646123,-173629.066185,-2961630.101398,-2567404.874254
0.46875,-287427.698067,-2310.455121,-743042.259579,543175.285241,-829105.774058,-987610.398246,-994262.277396,-1226772.81222,-3717743.303507,-3109807.683207,-3116977.228758,-2859557.552285,-2841955.821747,-173522.314253,-2961615.617468,-2567400.582719
0.47265625,-287478.660045,-2623.737171,-743063.717254,542944.078796,-829121.867314,-987629.173711,-994318.603792,-1226789.97836,-3717752.423019,-3109799.100137,-3116964.354153,-2859560.234494,-2842010.002376,-173723.479953,-2961603.279305,-2567401.655603
0.4765625,-287523.721161,-2543.270891,-743143.11065,542916.183819,-829130.986825,-987638.829665,-994572.340795,-1226807.1445,-3717753.495902,-3109801.245904,-3116963.817711,-2859558.088727,-2842376.928613,-173864.564164,-2961589.331816,-2567397.90051
0.48046875,-287477.050719,-2218.723562,-743181.734464,543049.757844,-829124.013081,-987618.444874,-994663.535912,-1226809.290267,-3717730.428902,-3109801.782346,-3116956.307525,-2859532.339517,-2842493.336498,-173647.305208,-2961578.602979,-2567388.244556
0.484375,-287415.359904,-2312.600888,-743137.746231,542855.029446,-829122.940197,-987615.226223,-994513.33219,-1226818.409779,-3717719.700065,-3109787.298416,-3116938.604944,-2859516.246261,-2842228.334216,-173489.054857,-2961573.23856,-2567381.807254
0.48828125,-287469.004091,-2645.731288,-743146.865743,542792.80219,-829093.435895,-987599.669409,-994517.087283,-1226793.733453,-3717690.195762,-3109734.190671,-3116884.960757,-2859484.059749,-2842199.902797,-173647.84165,-2961525.495234,-2567338.891904
0.4921875,-287531.767789,-2656.996567,-743226.259139,542794.947957,-829096.118104,-987608.252479,-994753.121704,-1226798.56143,-3717687.513553,-3109722.925392,-3116877.450571,-2859479.231772,-2842531.42387,-173835.059862,-2961508.865536,-2567327.626625
0.49609375,-287503.872812,-2538.979356,-743278.294,542937.105052,-829124.013081,-987627.027944,-994884.01352,-1226832.357267,-3717698.778832,-3109754.575462,-3116904.272664,-2859489.96061,-2842706.840361,-173664.471348,-2961532.468978,-2567349.620742
0.5,-287439.499788,-2517.521681,-743234.842209,542909.210075,-829136.887686,-987633.465246,-994743.465751,-1226847.914082,-3717695.560181,-3109752.966136,-3116899.981129,-2859484.059749,-2842450.95759,-173461.696322,-2961538.369839,-2567354.98516
0.50390625,-287466.858323,-2597.45152,-743217.676069,542678.540072,-829127.231732,-987632.928805,-994676.410517,-1226840.403895,-3717686.440669,-3109716.488089,-3116867.794617,-2859466.357168,-2842323.284426,-173568.984696,-2961511.547746,-2567331.381718
0.5078125,-287536.059324,-2674.699148,-743289.022838,542558.913536,-829147.080081,-987657.60513,-994870.602473,-1226861.325128,-3717702.533925,-3109718.633857,-3116873.159036,-2859479.768214,-2842611.353709,-173786.243652,-2961508.329094,-2567335.673253
0.51171875,-287526.939813,-2362.489982,-743353.932304,542675.321421,-829138.497011,-987641.511874,-995030.462149,-1226860.788686,-3717680.003366,-3109712.732996,-3116863.503082,-2859457.237656,-2842848.461014,-173677.882395,-2961494.918048,-2567322.798648
0.515625,-287452.910835,-2279.341493,-743327.11021,542572.861024,-829130.450383,-987628.100828,-994913.517822,-1226864.543779,-3717658.00925,-3109698.785508,-3116846.336942,-2859433.634214,-2842640.321569,-173441.311531,-2961487.407862,-2567313.142695
0.51953125,-287450.228626,-2596.915078,-743299.751675,542532.091443,-829135.814802,-987644.730526,-994797.109937,-1226878.491268,-3717663.91011,-3109681.082926,-3116832.389454,-2859437.389307,-2842434.327893,-173494.419276,-2961485.798536,-2567312.069811
0.5234375,-287525.330487,-2762.675615,-743358.76028,542461.281116,-829145.470756,-987662.433107,-994958.578939,-1226890.829431,-3717674.638948,-3109671.963414,-3116827.025035,-2859442.217284,-2842656.951267,-173727.235046,-2961473.460373,-2567309.387602
0.52734375,-287546.25172,-2495.527565,-743433.862142,542553.549117,-829145.470756,-987659.750898,-995155.989546,-1226897.803175,-3717662.837227,-3109673.57274,-3116827.025035,-2859432.024888,-2842936.43748,-173689.147674,-2961464.340861,-2567304.023183
0.53125,-287474.36851,-2328.157702,-743424.74263,542624.895886,-829163.173337,-987669.406851,-995073.913941,-1226927.307478,-3717671.420297,-3109696.103298,-3116841.508966,-2859436.852865,-2842777.114246,-173315.247692,-2961484.18921,-2567323.33509
0.53515625,-287455.056602,-2609.253241,-743383.436606,542437.141232,-829159.954686,-987667.797526,-994914.054264,-1226923.552385,-3717667.128762,-3109671.426972,-3116810.931779,-2859419.150283,-2842490.654289,-173135.003225,-2961441.810303,-2567306.16895
0.5390625,-287531.231347,-2839.386802,-743433.3257,542241.339951,-829178.730152,-987696.228945,-995022.951963,-1226945.010059,-3717685.904227,-3109668.208321,-3116810.931779,-2859432.024888,-2842638.175802,-173661.252697,-2961424.107721,-2567310.996927
0.54296875,-287558.053441,-2630.174474,-743512.182654,542294.984137,-829180.875919,-987698.911154,-995238.601594,-1226953.593129,-3717683.222018,-3109673.036298,-3116811.468221,-2859428.269795,-2842939.119689,-173730.990139,-2961417.670419,-2567307.241834
0.546875,-287499.044835,-2388.239192,-743144.719976,542417.829325,-828039.864068,-986555.753536,-994314.848699,-1225828.674534,-3716534.699981,-3108533.097331,-3115666.164835,-2858266.873153,-2842072.229632,-173472.961601,-2960282.559429,-2566169.985076
0.55078125,-287552.15258,-2691.328846,-739684.133492,542293.374812,-818793.75205,-977420.684984,-986520.348373,-1216637.279586,-3707347.596568,-3099202.763939,-3106396.449375,-2849000.912786,-2835002.99871,-173337.778251,-2951092.773806,-2556947.4765
0.5546875,-287644.957023,-2915.025105,-742237.596779,542094.891321,-826651.016075,-985293.505823,-992350.935024,-1224444.118076,-3715225.245383,-3107047.689801,-3114321.305075,-2856957.418556,-2840098.123562,-173558.7923,-2958967.203971,-2564783.28285
0.55859375,-287644.957023,-2734.244196,-743227.868465,542169.456741,-829221.109059,-987814.246156,-994534.253423,-1227013.138177,-3717755.64167,-3109640.313344,-3116875.304803,-2859502.835214,-2842091.005098,-173717.579093,-2961480.970559,-2567352.302951
0.5625,-287567.709394,-2444.029146,-743240.206628,542298.73923,-829205.015803,-987767.039271,-994549.273795,-1227015.283944,-3717708.971227,-3109641.386228,-3116839.363198,-2859446.508818,-2842052.381283,-173477.789578,-2961441.273861,-2567343.719881
0.56640625,-287492.071091,-2604.961706,-743189.781092,542186.62288,-829184.09457,-987732.706992,-994386.195467,-1227001.872897,-3717670.347413,-3109606.517506,-3116786.791895,-2859397.156167,-2841743.92721,-173358.699484,-2961399.431395,-2567317.970671
0.5703125,-287552.15258,-2920.925965,-743209.093,541957.025761,-829212.525989,-987762.211294,-994430.1837,-1227029.767874,-3717684.831343,-3109607.053948,-3116781.427477,-2859407.885004,-2841773.431513,-173545.917695,-2961393.530535,-2567329.772392
0.57421875,-287604.723883,-2868.891104,-743290.632163,541913.037528,-829208.234454,-987757.91976,-994693.576657,-1227029.767874,-3717670.347413,-3109593.642902,-3116763.724895,-2859390.182422,-2842136.602656,-173697.194302,-2961365.099116,-2567314.75202
0.578125,-287561.808534,-2740.681498,-743331.938187,542046.611553,-829227.546361,-987764.893504,-994803.010798,-1227058.199293,-3717672.49318,-3109621.001437,-3116780.354593,-2859390.182422,-2842260.520728,-173489.054857,-2961377.973721,-2567328.163067
0.58203125,-287497.971952,-2777.159545,-743282.585535,541874.413714,-829238.275199,-987770.257922,-994659.244378,-1227074.292549,-3717668.738087,-3109617.246344,-3116770.698639,-2859383.208678,-2841999.80998,-173315.247692,-2961380.65593,-2567329.772392
0.5859375,-287540.350859,-2888.203012,-743284.194861,541802.530504,-829218.963292,-987760.065527,-994647.979098,-1227058.199293,-3717648.889738,-3109571.648785,-3116727.78329,-2859356.923027,-2841962.25905,-173460.086997,-2961344.177883,-2567297.049439
0.58984375,-287605.796767,-2913.415779,-743364.124699,541788.046573,-829218.963292,-987767.575713,-994882.404194,-1227062.490828,-3717645.671087,-3109559.847064,-3116715.981569,-2859350.485724,-2842302.899635,-173656.961162,-2961324.329534,-2567282.565508
0.59375,-287584.875534,-2588.86845,-743420.451095,541923.766366,-829238.275199,-987779.377434,-995025.097731,-1227090.385805,-3717648.353296,-3109583.986948,-3116737.975685,-2859355.313701,-2842498.700917,-173501.929462,-2961339.349906,-2567297.049439
0.59765625,-287507.091463,-2573.311636,-743385.582374,541909.818877,-829247.39471,-987780.450318,-994893.133032,-1227106.479061,-3717644.598203,-3109582.914064,-3116733.147709,-2859347.803515,-2842260.520728,-173287.889157,-2961346.860093,-2567302.950299
0.6015625,-287527.476254,-2903.223384,-743370.562002,541683.440409,-829251.686245,-987791.179155,-994821.786263,-1227113.452806,-3717647.816854,-3109561.45639,-3116714.372243,-2859344.584864,-2842123.19161,-173381.766484,-2961333.985488,-2567294.367229
0.60546875,-287599.895906,-3011.048199,-743442.981654,541553.085035,-829240.420966,-987786.88762,-995017.587545,-1227103.26041,-3717633.869366,-3109534.634296,-3116688.086592,-2859326.882282,-2842410.188009,-173602.780533,-2961299.653208,-2567267.008694
0.609375,-287596.677255,-2705.812777,-743511.646213,541672.17513,-829268.852385,-987811.027504,-995188.7125,-1227138.665573,-3717648.889738,-3109564.675041,-3116715.981569,-2859343.51198,-2842656.951267,-173508.366765,-2961323.25665,-2567289.539252
0.61328125,-287515.674533,-2596.915078,-743489.652096,541706.507409,-829259.196432,-987794.934248,-995083.033452,-1227139.202015,-3717627.432064,-3109551.800436,-3116699.888313,-2859318.835654,-2842462.22287,-173202.058459,-2961313.064255,-2567279.346857
0.6171875,-287508.700789,-2906.978477,-743458.538468,541376.059219,-829234.520106,-987777.231667,-994958.578939,-1227122.035876,-3717609.19304,-3109512.64018,-3116654.827196,-2859288.258468,-2842242.281704,-173025.032642,-2961262.638719,-2567246.623903
0.62109375,-287588.630627,-3085.077177,-743520.229282,541359.965963,-829232.374338,-987785.814737,-995108.782662,-1227126.32741,-3717609.19304,-3109492.791831,-3116635.515289,-2859281.821165,-2842461.686428,-173514.804067,-2961224.014905,-2567231.603531
0.625,-287605.796767,-2828.121522,-743594.794702,541552.548594,-829240.957408,-987792.788481,-995307.266153,-1227145.102876,-3717612.411691,-3109505.129994,-3116648.389894,-2859283.966933,-2842754.047245,-173555.037207,-2961225.624231,-2567236.96795
0.62890625,-287535.522882,-2638.221102,-743587.284516,541634.624199,-829251.686245,-987794.397806,-995234.310059,-1227165.487667,-3717612.948133,-3109519.613924,-3116657.509405,-2859282.894049,-2842617.254569,-173297.008669,-2961240.644603,-2567249.306112
0.6328125,-287511.91944,-2900.541174,-743544.369166,541457.061941,-829275.826129,-987821.2199,-995069.085964,-1227192.846202,-3717627.432064,-3109516.931715,-3116654.827196,-2859293.622886,-2842331.331054,-173268.57725,-2961249.227673,-2567261.107834
0.63671875,-287587.557743,-3140.330689,-743584.602306,541259.651334,-829291.919385,-987846.969109,-995171.54636,-1227209.4759,-3717639.770226,-3109507.275761,-3116652.144987,-2859304.351724,-2842473.488149,-173496.565044,-2961242.79037,-2567262.180717
0.640625,-287617.062046,-3040.01606,-743659.704168,541305.785335,-829295.674478,-987848.578435,-995389.8782,-1227215.913202,-3717633.869366,-3109507.812203,-3116651.608545,-2859296.841538,-2842791.598176,-173542.162602,-2961231.525091,-2567256.279857
0.64453125,-287555.371231,-2952.039594,-743657.021958,541425.411871,-829277.435455,-987822.292784,-995373.248502,-1227202.502156,-3717596.318435,-3109487.963854,-3116626.395777,-2859257.681281,-2842739.563315,-173279.306087,-2961212.213184,-2567233.212856
0.6484375,-287567.172953,-2860.308034,-741913.049449,541324.024358,-824397.960233,-982983.587144,-991278.05129,-1222351.994795,-3712731.327144,-3104561.81819,-3111708.296741,-2854344.410222,-2838972.132083,-173183.819435,-2956338.638823,-2562356.956286
0.65234375,-287757.609815,-3120.48234,-740214.138057,541103.546751,-820420.24379,-979121.742144,-987658.678014,-1218396.80891,-3708826.030353,-3100511.145653,-3107761.157484,-2850413.900663,-2835711.638416,-173268.57725,-2952426.368287,-2558389.96868
0.65625,-287745.271652,-2953.648919,-743290.095721,541171.138426,-829129.913942,-987780.450318,-994548.200911,-1227057.662852,-3717511.024178,-3109255.148084,-3116513.742985,-2859174.532792,-2841869.454607,-173479.398904,-2961101.169717,-2567079.254041
0.66015625,-287660.513837,-2645.194846,-743382.900164,541335.826079,-829350.391549,-987955.330367,-994716.643657,-1227294.233715,-3717690.195762,-3109493.864714,-3116708.471383,-2859345.657747,-2841958.503957,-173277.16032,-2961286.242162,-2567309.924043
0.6640625,-287562.344976,-2773.404452,-743328.183094,541241.412311,-829318.741479,-987905.441273,-994549.273795,-1227275.45825,-3717637.088017,-3109456.313784,-3116645.171242,-2859283.966933,-2841642.003255,-173140.904086,-2961230.452207,-2567280.956183
0.66796875,-287583.80265,-3085.613619,-743338.37549,541011.815192,-829308.549083,-987895.785319,-994577.168772,-1227271.166715,-3717619.921877,-3109427.345923,-3116604.40166,-2859260.899932,-2841647.367674,-173316.320576,-2961189.682625,-2567261.107834
0.671875,-287629.936651,-3042.698269,-743420.987537,540962.998982,-829315.522828,-987901.149738,-994835.19731,-1227282.968436,-3717617.239668,-3109426.273039,-3116599.037242,-2859252.853304,-2841998.737097,-173476.716694,-2961173.052928,-2567254.670531
0.67578125,-287591.849278,-2709.031428,-743470.876631,541111.056937,-829302.648223,-987877.009854,-994960.724707,-1227281.35911,-3717586.12604,-3109420.372179,-3116584.553311,-2859221.739676,-2842151.623029,-173272.868785,-2961154.813904,-2567239.113717
0.6796875,-287525.330487,-2748.728126,-743431.179932,541065.459378,-829306.403316,-987873.791203,-994827.150682,-1227291.551506,-3717574.324319,-3109410.716225,-3116568.996497,-2859209.401513,-2841897.886026,-173084.041248,-2961151.595253,-2567236.431508
0.68359375,-287550.006813,-3068.983921,-743429.570607,540709.261979,-829309.621967,-987885.056482,-994804.620123,-1227298.52525,-3717575.397202,-3109389.794992,-3116547.002381,-2859203.500653,-2841831.903676,-173210.641528,-2961134.429113,-2567225.166228
0.6875,-287613.306953,-3109.753503,-743507.354678,540771.489235,-829323.033014,-987908.123482,-995038.508777,-1227320.519366,-3717587.735365,-3109393.550085,-3116552.366799,-2859210.474397,-2842159.133215,-173408.588577,-2961131.746904,-2567228.921322
0.69140625,-287596.677255,-2779.841754,-743569.045492,541033.272866,-829299.429572,-987877.009854,-995198.368454,-1227305.498994,-3717551.257318,-3109377.456829,-3116531.982008,-2859174.532792,-2842378.537938,-173244.437366,-2961104.924811,-2567201.026344
0.6953125,-287516.747417,-2730.489103,-743536.322538,541039.710169,-829320.350804,-987890.957343,-995068.01308,-1227334.466855,-3717570.032784,-3109400.52383,-3116545.929497,-2859184.188746,-2842141.967075,-172751.44729,-2961116.19009,-2567219.265368
0.69921875,-287533.377115,-3042.161827,-743515.401306,540827.27919,-829350.927991,-987924.75318,-994978.96373,-1227365.044041,-3717599.537086,-3109405.351806,-3116550.221032,-2859206.719304,-2841977.279422,-172908.624757,-2961102.242601,-2567236.96795
0.703125,-287605.796767,-3157.496829,-743581.920097,540694.241607,-829350.391549,-987929.581157,-995168.864151,-1227365.580483,-3717594.172668,-3109387.649225,-3116531.982008,-2859198.136234,-2842248.719007,-173374.79274,-2961068.983205,-2567221.411135
0.70703125,-287603.114558,-3038.406734,-743648.97533,540809.576608,-829326.251665,-987901.68618,-995360.373898,-1227347.34146,-3717556.621737,-3109362.972899,-3116507.305683,-2859158.439536,-2842515.330614,-173298.081553,-2961035.187368,-2567186.542414
0.7109375,-287524.257603,-2928.436152,-743624.299005,540868.048771,-829327.860991,-987894.175994,-995268.105896,-1227351.632995,-3717539.992039,-3109355.999155,-3116496.040403,-2859139.127629,-2842341.52345,-173040.589457,-2961030.895833,-2567178.495786
0.71484375,-287507.091463,-2926.826826,-743586.748074,540677.611909,-829339.12627,-987911.878575,-995136.677639,-1227366.653367,-3717546.965783,-3109342.588108,-3116482.092915,-2859140.200512,-2842108.707679,-173049.708968,-2961031.432275,-2567179.56867
0.71875,-287573.610255,-3096.342456,-743642.538028,540426.557115,-829369.703456,-987951.038832,-995277.76185,-1227401.522088,-3717578.079412,-3109354.389829,-3116498.722613,-2859169.168373,-2842312.555589,-173274.478111,-2961043.233996,-2567198.344135
0.72265625,-287588.630627,-2846.896988,-743721.394983,540532.772605,-829354.683084,-987937.627785,-995490.192829,-1227398.303437,-3717557.158179,-3109344.197433,-3116486.38445,-2859146.637815,-2842622.082546,-173265.358599,-2961020.703437,-2567179.032228
0.7265625,-287517.820301,-2624.273613,-743718.712773,540810.11305,-829317.132153,-987896.321761,-995442.449503,-1227375.236437,-3717509.414853,-3109312.010921,-3116451.515728,-2859098.358047,-2842519.085708,-172997.674107,-2960991.199135,-2567143.627065
0.73046875,-287487.779556,-2860.308034,-743672.042331,540651.862699,-829305.330432,-987885.592924,-995274.543199,-1227365.044041,-3717489.566504,-3109276.605758,-3116416.647007,-2859075.827488,-2842222.969797,-172948.321456,-2960969.205018,-2567124.851599
0.734375,-287554.83479,-3100.097549,-743710.666145,540453.91565,-829333.761851,-987921.534529,-995359.837456,-1227393.47546,-3717516.388597,-3109280.360851,-3116425.230077,-2859097.821605,-2842328.648845,-173162.36176,-2960974.569437,-2567140.944855
0.73828125,-287584.339092,-2912.342896,-743788.450216,540494.14879,-829363.802596,-987949.965948,-995577.632854,-1227429.417065,-3717538.919155,-3109308.255828,-3116450.979287,-2859119.815721,-2842645.149546,-173218.151715,-2960992.272018,-2567163.475414
0.7421875,-287523.184719,-2736.926405,-743801.324821,540627.186373,-829361.120386,-987938.164227,-995564.758249,-1227433.7086,-3717520.14369,-3109303.964293,-3116444.005542,-2859099.430931,-2842613.499476,-172954.758758,-2960988.516925,-2567155.965228
0.74609375,-287479.732928,-2937.555663,-743744.998425,540504.877627,-829383.114503,-987960.158343,-995374.321386,-1227457.312042,-3717527.653876,-3109301.818526,-3116445.078426,-2859106.404675,-2842296.462333,-172847.470385,-2961000.855088,-2567169.376274
0.75,-287610.624744,-3058.255083,-741607.814027,540326.242486,-823144.832032,-981788.394664,-990393.458652,-1221256.044061,-3711318.339267,-3103004.52745,-3110164.417048,-2852833.253483,-2837891.201722,-173023.423317,-2954766.864153,-2560932.166688
0.75390625,-287767.265769,-2964.377757,-740821.39025,540293.519532,-821708.240713,-980447.826439,-988932.727448,-1219831.254462,-3709941.292994,-3101522.338572,-3108786.297892,-2851457.816536,-2836632.709102,-173017.522456,-2953395.718741,-2559504.69488
0.7578125,-287662.659605,-2578.139612,-743525.593701,540555.303163,-829399.207759,-988070.128926,-994904.398311,-1227483.061252,-3717596.854877,-3109264.804037,-3116519.107404,-2859180.970094,-2841869.991049,-172912.916292,-2961057.717926,-2567186.542414
0.76171875,-287548.397487,-2677.381358,-743473.022398,540503.268302,-829420.665433,-988059.936531,-994723.617402,-1227523.294392,-3717586.12604,-3109287.871037,-3116499.795496,-2859158.975978,-2841515.939416,-172783.633802,-2961043.233996,-2567218.192484
0.765625,-287558.053441,-2989.054083,-743474.095282,540275.280508,-829401.889968,-988032.577995,-994725.226727,-1227509.883345,-3717556.085295,-3109247.101456,-3116444.005542,-2859117.669954,-2841473.560509,-172946.175688,-2960986.371158,-2567189.761065
0.76953125,-287600.96879,-2960.622664,-743550.270027,540216.271903,-829417.983224,-988040.624623,-994976.817963,-1227528.658811,-3717556.085295,-3109254.0752,-3116439.714007,-2859111.769093,-2841806.690908,-173116.764202,-2960969.205018,-2567191.370391
0.7734375,-287560.73565,-2615.690543,-743601.232004,540369.694277,-829412.082364,-988020.776274,-995113.074197,-1227535.096113,-3717532.481853,-3109261.048944,-3116431.667379,-2859088.702093,-2841968.15991,-172921.499362,-2960956.330413,-2567182.787321
0.77734375,-287477.587161,-2624.810055,-743561.535306,540340.726416,-829394.379782,-987996.63639,-994980.573056,-1227528.122369,-3717500.295341,-3109235.299735,-3116400.017309,-2859056.515581,-2841725.151745,-172716.578569,-2960934.336297,-2567162.40253
0.78125,-287497.971952,-2940.237873,-743551.342911,540118.103041,-829397.598433,-988004.146576,-994944.095009,-1227530.804578,-3717498.686015,-3109209.550525,-3116374.804541,-2859047.932511,-2841635.565953,-172828.694919,-2960918.243041,-2567149.527925
0.78515625,-287566.636511,-2994.418501,-743625.371888,540016.179087,-829390.624689,-988000.391483,-995174.22857,-1227523.294392,-3717488.49362,-3109188.09285,-3116352.810425,-2859030.766372,-2841954.212422,-173029.860619,-2960887.665854,-2567125.924483
0.7890625,-287555.371231,-2808.809615,-743685.989819,540071.432599,-829397.061991,-988000.927925,-995350.181502,-1227535.632555,-3717484.738527,-3109202.576781,-3116358.174844,-2859021.64686,-2842187.028192,-172796.508407,-2960882.837878,-2567125.924483
0.79296875,-287488.315998,-2850.115639,-743650.048214,540071.432599,-829421.738317,-988022.922042,-995239.674478,-1227573.719928,-3717506.196202,-3109231.0082,-3116375.340983,-2859032.375697,-2841969.232794,-172276.159796,-2960885.520087,-2567150.064367
0.796875,-287488.85244,-2849.579197,-743623.762563,540097.181809,-829426.029852,-988034.187321,-995144.724267,-1227582.302997,-3717508.341969,-3109215.451385,-3116357.638402,-2859029.693488,-2841792.206978,-172658.106406,-2960852.797133,-2567143.627065
0.80078125,-287565.563627,-2952.576036,-743685.453377,539968.435761,-829442.123108,-988058.327205,-995323.895851,-1227598.396253,-3717520.680132,-3109210.086967,-3116354.956192,-2859037.740116,-2842049.699074,-173000.892758,-2960842.068296,-2567140.408413
0.8046875,-287568.782278,-2659.142334,-743754.654378,540080.552111,-829437.295131,-988051.353461,-995523.452225,-1227600.542021,-3717505.65976,-3109211.15985,-3116352.810425,-2859021.64686,-2842337.231915,-172936.519734,-2960830.803017,-2567130.75246
0.80859375,-287487.243114,-2490.699588,-743740.170448,540152.971763,-829450.169736,-988055.644996,-995443.522387,-1227623.609021,-3717506.732643,-3109222.42513,-3116360.320611,-2859018.964651,-2842183.809541,-172674.199662,-2960846.359831,-2567142.017739
0.8125,-287470.613417,-2763.212057,-743702.083075,539968.435761,-829468.40876,-988076.029787,-995300.82885,-1227646.676021,-3717515.852155,-3109215.451385,-3116353.883309,-2859024.329069,-2841934.900514,-172670.98101,-2960851.724249,-2567151.137251
0.81640625,-287545.715278,-2964.377757,-743754.117936,539789.264177,-829455.534155,-988072.811135,-995439.767294,-1227633.264975,-3717502.441109,-3109180.046222,-3116323.842564,-2859009.845139,-2842135.529773,-172899.505246,-2960817.928412,-2567122.16939
0.8203125,-287564.490743,-2725.661126,-743832.974891,539860.074503,-829473.236736,-988084.612856,-995657.562692,-1227653.113324,-3717508.341969,-3109193.993711,-3116339.93582,-2859013.600232,-2842449.884707,-172907.015432,-2960821.147063,-2567129.679576
0.82421875,-287490.998207,-2482.65296,-743840.485077,539930.348388,-829470.554527,-988074.956903,-995619.475319,-1227664.378603,-3717496.003806,-3109196.67592,-3116339.399378,-2858999.652743,-2842367.809101,-172638.794498,-2960824.902156,-2567130.216018
0.828125,-287434.13537,-2704.739893,-743795.960402,539715.235199,-829452.315504,-988061.009414,-995446.741038,-1227657.404859,-3717473.473248,-3109159.661431,-3116299.70268,-2858972.83065,-2842083.494912,-172570.666381,-2960801.298714,-2567107.149018
0.83203125,-287509.237231,-2956.331129,-743832.974891,539707.725013,-829470.018085,-988092.123043,-995523.988667,-1227679.398975,-3717491.175829,-3109153.760571,-3116299.166238,-2858988.387464,-2842197.220587,-172780.951593,-2960799.152946,-2567111.976995
0.8359375,-287551.079697,-2833.485941,-743912.368287,539756.004781,-829475.918946,-988099.633229,-995749.830693,-1227690.127813,-3717492.785155,-3109158.052106,-3116304.530657,-2858986.778138,-2842534.10608,-172856.053454,-2960793.788528,-2567109.831227
0.83984375,-287489.388882,-2808.809615,-743927.388659,539894.406783,-829501.668155,-988114.653601,-995760.023088,-1227720.704999,-3717497.613132,-3109182.19199,-3116327.061215,-2858994.288325,-2842528.741661,-172598.561358,-2960817.928412,-2567131.288902
0.84375,-287444.327765,-2695.620381,-743871.062263,539782.290433,-829506.496132,-988117.872252,-995578.705737,-1227727.678743,-3717488.49362,-3109163.952966,-3116308.28575,-2858983.023045,-2842217.605378,-172478.934822,-2960811.491109,-2567126.997367
0.84765625,-287507.091463,-2853.870732,-742876.499042,539575.223872,-826585.033725,-985229.132799,-993276.297245,-1224822.309592,-3714580.978701,-3106204.403186,-3113352.491063,-2856041.175847,-2840166.788121,-172655.424196,-2957879.836307,-2564198.561215
0.8515625,-287628.327325,-2766.430708,-739962.010379,539560.739942,-819012.620331,-977783.856128,-987022.994402,-1217297.639525,-3707079.912076,-3098563.325234,-3105799.389577,-2848477.881965,-2834659.675915,-172604.462219,-2950374.478146,-2556646.532613
0.85546875,-287624.572232,-2408.623983,-743289.022838,539772.634479,-828565.040656,-987293.897545,-994364.201351,-1226797.488546,-3716616.775586,-3108158.124466,-3115429.593972,-2858105.404151,-2841126.482621,-172481.617031,-2959925.825587,-2566182.859681
0.859375,-287506.555022,-2483.725844,-743591.576051,539735.083548,-829516.152086,-988198.338532,-994924.783102,-1227758.792372,-3717529.799644,-3109116.20964,-3116338.862936,-2859012.527348,-2841415.088345,-172408.124496,-2960830.266575,-2567139.871972
0.86328125,-287507.627905,-2807.20029,-743582.456539,539504.413546,-829530.099574,-988200.4843,-994902.252543,-1227781.859372,-3717527.653876,-3109116.20964,-3116313.113727,-2859002.871395,-2841321.747461,-172562.083311,-2960803.980923,-2567150.064367
0.8671875,-287552.689022,-2804.51808,-743657.021958,539435.748987,-829529.563132,-988192.437672,-995149.552244,-1227786.150907,-3717512.097062,-3109106.553686,-3116290.583168,-2858982.486604,-2841645.221906,-172742.327779,-2960768.039318,-2567135.580437
0.87109375,-287515.138091,-2460.658844,-743709.593261,539584.879826,-829534.927551,-988183.31816,-995300.292409,-1227800.634837,-3717496.003806,-3109118.891849,-3116289.510285,-2858965.320464,-2841824.39349,-172564.229079,-2960761.602016,-2567138.262646
0.875,-287445.937091,-2452.612216,-743673.651656,539568.250128,-829554.239458,-988192.437672,-995182.275198,-1227825.847605,-3717498.149574,-3109128.547803,-3116293.80182,-2858965.320464,-2841585.140417,-172351.261658,-2960775.013062,-2567153.81946
0.87890625,-287458.275254,-2767.503591,-743662.922819,539348.308962,-829563.895412,-988204.775835,-995140.969174,-1227837.112884,-3717504.050434,-3109114.063873,-3116277.172122,-2858963.711138,-2841482.143579,-172447.821194,-2960764.820667,-2567148.991483
0.8828125,-287519.966068,-2840.996127,-743738.561122,539197.032356,-829569.259831,-988212.286021,-995365.738316,-1227845.159512,-3717503.513992,-3109105.480803,-3116267.516168,-2858959.956045,-2841794.889187,-172654.887754,-2960747.118085,-2567135.580437
0.88671875,-287504.945696,-2519.131007,-743806.689239,539224.927333,-829562.822528,-988204.239393,-995556.175179,-1227856.961233,-3717490.639387,-3109112.990989,-3116266.979726,-2858943.862789,-2842054.527051,-172467.669543,-2960739.071457,-2567128.606692
0.890625,-287426.625183,-2420.425704,-743787.913774,539510.850848,-829530.099574,-988168.297788,-995464.980062,-1227836.04,-3717457.379992,-3109088.851105,-3116227.81947,-2858897.728789,-2841871.063932,-171912.988652,-2960688.645922,-2567096.42018
0.89453125,-287428.770951,-2721.369591,-743763.77389,539351.527614,-829531.172458,-988171.516439,-995366.274758,-1227836.04,-3717454.16134,-3109063.101895,-3116202.606702,-2858886.999951,-2841682.236395,-172226.807144,-2960646.267014,-2567081.399808
0.8984375,-287496.362626,-2868.354662,-743827.07403,539200.787449,-829582.670877,-988232.670812,-995536.32683,-1227890.757071,-3717507.269085,-3109099.0435,-3116241.230517,-2858935.279719,-2841919.880142,-172615.727498,-2960674.161991,-2567120.023623
0.90234375,-287502.799929,-2741.21794,-743901.63945,539303.247846,-829595.00904,-988240.180998,-995744.466274,-1227905.777443,-3717507.805527,-3109112.454547,-3116251.422912,-2858934.206836,-2842211.704518,-172568.520614,-2960676.307759,-2567124.315157
0.90625,-287437.354021,-2673.626265,-743885.546194,539385.859893,-829568.186947,-988204.239393,-995680.09325,-1227885.392652,-3717462.74441,-3109080.804477,-3116212.799098,-2858888.072835,-2842078.666935,-172297.617471,-2960646.267014,-2567089.446436
0.91015625,-287403.558183,-2609.253241,-743843.167286,539209.370519,-829577.8429,-988216.577556,-995530.425969,-1227896.12149,-3717463.280852,-3109063.101895,-3116196.705842,-2858883.244858,-2841819.029071,-172272.941145,-2960641.975479,-2567086.764227
0.9140625,-287477.587161,-2793.252801,-743893.05638,539024.298075,-829595.00904,-988242.326765,-995652.734715,-1227912.214746,-3717478.301225,-3109052.9095,-3116196.705842,-2858895.046579,-2841990.690469,-172491.809427,-2960637.683944,-2567087.300669
0.91796875,-287500.117719,-2567.947217,-743970.840451,539084.916006,-829613.248064,-988258.420021,-995875.35809,-1227935.818188,-3717486.347853,-3109068.466314,-3116211.726214,-2858903.629649,-2842313.628473,-172514.339985,-2960641.975479,-2567096.42018
0.921875,-287428.770951,-2310.455121,-743981.032846,539107.983006,-829619.685366,-988254.664928,-995850.145322,-1227956.202979,-3717481.519876,-3109081.340919,-3116218.699958,-2858895.583021,-2842251.937658,-172243.973284,-2960653.240759,-2567104.466808
0.92578125,-287382.63695,-2520.740333,-743939.726822,539013.032796,-829620.221808,-988262.711556,-995675.801715,-1227970.150467,-3717479.91055,-3109067.929872,-3116204.75247,-2858892.36437,-2841956.894631,-172162.43412,-2960655.386526,-2567104.466808
0.9296875,-287442.718439,-2791.107034,-743975.668427,538979.7734,-829618.612482,-988271.294626,-995748.757809,-1227970.150467,-3717477.764783,-3109043.253546,-3116182.221911,-2858884.854184,-2842047.016865,-172367.354914,-2960633.928851,-2567089.982878
0.93359375,-287481.342254,-2641.439753,-744056.134707,538997.475981,-829600.909901,-988255.737812,-995980.500696,-1227957.812304,-3717454.697782,-3109019.113662,-3116160.764237,-2858859.104974,-2842386.584566,-172453.722054,-2960600.133014,-2567061.015017
0.9375,-287421.260765,-2326.548377,-744077.05594,539143.388169,-829610.029413,-988257.347138,-996001.95837,-1227977.124211,-3717448.26048,-3109031.451825,-3116172.565958,-2858855.349881,-2842395.704078,-172198.375726,-2960611.398293,-2567069.061645
0.94140625,-287356.887741,-2461.731727,-744023.411754,539043.609982,-829617.539599,-988262.175114,-995817.422368,-1227988.925933,-3717445.041829,-3109019.650104,-3116160.764237,-2858849.449021,-2842070.083865,-172060.510166,-2960614.080502,-2567073.35318
0.9453125,-287410.531927,-2763.748498,-744037.359242,538820.450165,-829605.201436,-988255.737812,-995826.005438,-1227975.514886,-3717427.875689,-3108979.416964,-3116121.60398,-2858826.918462,-2842063.110121,-172235.926656,-2960579.748223,-2567043.848877
0.94921875,-287489.925324,-2723.515358,-742436.080269,538820.986607,-824819.067099,-983515.201034,-992179.273627,-1223222.639945,-3712665.344794,-3104164.314766,-3111316.694178,-2854015.034916,-2838939.945571,-172366.28203,-2955794.150328,-2562258.787424
0.953125,-287561.272092,-2630.710915,-740601.449084,538981.919167,-820520.021977,-979318.616309,-988298.653161,-1218949.344033,-3708429.599813,-3099822.354296,-3107068.611034,-2849753.004283,-2835420.350483,-171847.542745,-2951573.425719,-2557980.663536
0.95703125,-287470.613417,-2454.757983,-743664.532145,538986.210702,-829417.983224,-988160.25116,-994994.520544,-1227798.48907,-3717298.593199,-3108748.210519,-3115999.295235,-2858697.09953,-2841161.351342,-171769.222232,-2960427.398733,-2566864.140852
0.9609375,-287453.447277,-2647.340613,-743738.561122,538774.316165,-829659.382064,-988375.90079,-995115.219964,-1228050.616747,-3717513.706388,-3108980.489848,-3116189.195655,-2858897.728789,-2841158.132691,-172151.705283,-2960608.179642,-2567106.076134
0.96484375,-287492.607533,-2661.824544,-743806.689239,538693.313443,-829664.746483,-988368.390604,-995341.06199,-1228066.173561,-3717501.904667,-3108982.099173,-3116172.029516,-2858879.489765,-2841440.837555,-172345.360797,-2960572.774479,-2567105.539692
0.96875,-287453.447277,-2320.647516,-743858.187659,538842.444282,-829665.819367,-988350.151581,-995495.557248,-1228076.902399,-3717480.983434,-3108993.900894,-3116165.055771,-2858852.667672,-2841625.909999,-172181.209586,-2960557.217664,-2567101.784599
0.97265625,-287370.835229,-2287.388121,-743822.782495,538840.298514,-829658.845622,-988330.303232,-995380.222247,-1228075.293073,-3717454.16134,-3108979.416964,-3116138.77012,-2858823.699811,-2841397.922206,-171957.513327,-2960540.587967,-2567092.128645
0.9765625,-287374.590322,-2597.45152,-743806.689239,538624.112442,-829653.481204,-988324.938813,-995327.650944,-1228069.392213,-3717443.968945,-3108948.303336,-3116108.192934,-2858805.460787,-2841276.686344,-172035.297398,-2960516.448083,-2567072.816738
0.98046875,-287431.989602,-2687.037311,-743874.280915,538503.413022,-829656.163413,-988330.839673,-995548.128551,-1228075.293073,-3717442.359619,-3108935.428731,-3116095.318329,-2858801.169253,-2841574.41158,-172243.436842,-2960497.136175,-2567059.942133
0.984375,-287421.260765,-2370.53661,-743942.409032,538559.739418,-829629.877762,-988301.335371,-995750.903577,-1228059.736259,-3717404.808689,-3108916.653266,-3116069.569119,-2858762.545438,-2841848.533374,-172143.658655,-2960465.486105,-2567028.828505
0.98828125,-287340.794485,-2251.446515,-743923.097124,538588.707279,-829637.387948,-988304.01758,-995658.635576,-1228081.730375,-3717402.126479,-3108924.163452,-3116070.642003,-2858757.181019,-2841679.554186,-171893.140303,-2960476.751384,-2567035.802249
0.9921875,-287338.648717,-2542.198007,-743893.05638,538600.509,-829646.507459,-988318.50151,-995550.81076,-1228095.677864,-3717406.418014,-3108910.215963,-3116057.230956,-2858758.790345,-2841482.680021,-171914.061536,-2960471.923408,-2567034.729366
0.99609375,-287406.240392,-2704.203451,-743952.064985,538452.987486,-829640.070157,-988320.110836,-995721.399274,-1228090.313445,-3717399.44427,-3108885.539637,-3116033.627514,-2858745.379298,-2841721.396651,-172132.929818,-2960444.02843,-2567012.198807
1.0,0.0,0.0,0.0,0.0,0.0,0.0,0.0,0.0,0.0,0.0,0.0,0.0,0.0,0.0,0.0,0.0
1.00390625,-331599.930716,14133.097426,-1555001.742244,-11995.913028,-1446798.199034,-1807294.643795,-2176456.770475,-2542229.120997,-3518333.914081,-2477429.08924,-2483215.687658,-2443081.789384,-2434703.640306,-34447.614485,-2541695.897781,-2523568.454214
1.0078125,-331540.92211,14533.283059,-1555189.496897,-11854.292375,-1446788.54308,-1807277.477655,-2176623.067453,-2542217.319276,-3518311.919965,-2477434.453658,-2483213.005449,-2443060.331709,-2434880.666123,-34282.39039,-2541687.314711,-2523551.824516
1.01171875,-331465.283807,14596.046757,-1555300.003922,-11720.71835,-1446776.204917,-1807261.384399,-2176582.834313,-2542203.908229,-3518296.363151,-2477425.334147,-2483200.667286,-2443042.092686,-2434890.322076,-34124.140039,-2541684.09606,-2523536.267702
1.015625,-331441.680365,14361.621661,-1555385.834621,-11821.03298,-1446786.397312,-1807273.722562,-2176567.813941,-2542211.954857,-3518306.555546,-2477420.50617,-2483197.985077,-2443052.821523,-2434923.04503,-34264.151366,-2541688.387595,-2523542.168563
1.01953125,-331426.659993,14388.443755,-1555494.195878,-11863.948329,-1446769.767615,-1807258.70219,-2176742.69399,-2542190.497183,-3518285.634313,-2477396.366286,-2483174.918076,-2443033.509616,-2435082.904706,-34465.317066,-2541657.273967,-2523519.638004
1.0234375,-331382.671759,14780.582759,-1555608.457995,-11774.898979,-1446795.516824,-1807280.159864,-2176904.699433,-2542215.70995,-3518300.654686,-2477436.599426,-2483209.250356,-2443051.212198,-2435205.749894,-34345.69053,-2541685.168944,-2523541.095679
1.02734375,-331311.861433,14933.468692,-1555677.122554,-11579.634139,-1446812.682964,-1807292.498027,-2176867.148503,-2542233.948974,-3518316.2115,-2477463.421519,-2483230.171589,-2443066.23257,-2435154.787917,-34147.207039,-2541716.282572,-2523556.116051
1.03125,-331276.992712,14712.454642,-1555708.772625,-11646.152931,-1446784.787987,-1807269.431027,-2176810.285665,-2542206.053997,-3518294.217383,-2477424.797705,-2483193.1571,-2443043.702012,-2435118.30987,-34233.57418,-2541690.533363,-2523529.293958
1.03515625,-331262.508781,14665.247758,-1555764.026137,-11709.989513,-1446783.178661,-1807270.503911,-2176935.813062,-2542202.298904,-3518291.535174,-2477412.995984,-2483183.501146,-2443039.410477,-2435204.140568,-34451.90602,-2541678.1952,-2523525.002423
1.0390625,-331211.546804,15022.518041,-1555845.565301,-11604.310465,-1446781.569336,-1807265.675934,-2177099.427831,-2542198.543811,-3518282.415662,-2477423.188379,-2483191.011332,-2443030.827407,-2435342.54257,-34394.50674,-2541677.122316,-2523519.638004
1.04296875,-331150.392431,15190.960788,-1555888.48065,-11440.159254,-1446771.37694,-1807253.874213,-2177078.506598,-2542182.450555,-3518262.030871,-2477417.823961,-2483182.964704,-2443013.124825,-2435318.402686,-34164.373179,-2541673.367223,-2523503.544748
1.046875,-331143.418687,14679.731688,-1555873.460278,-11482.538162,-1446769.231173,-1807252.801329,-2176980.874179,-2542171.721717,-3518253.984243,-2477395.829844,-2483160.434146,-2443004.005313,-2435221.84315,-34193.877482,-2541665.320595,-2523490.670143
1.05078125,-331167.558571,14861.049039,-1555883.116231,-11572.660395,-1446786.933754,-1807275.86833,-2177064.022668,-2542185.669206,-3518272.759708,-2477397.975611,-2483169.017216,-2443020.098569,-2435270.122918,-34419.183066,-2541672.830781,-2523505.154074
1.0546875,-331134.299175,15348.138255,-1555936.760418,-11508.823813,-1446816.438057,-1807302.690423,-2177236.220507,-2542212.491299,-3518294.753825,-2477433.917217,-2483204.958821,-2443045.311337,-2435381.166384,-34421.328833,-2541697.507107,-2523530.903283
1.05859375,-331076.899895,15656.592328,-1555979.675767,-11318.38695,-1446814.29229,-1807295.180237,-2177246.412903,-2542210.881974,-3518282.952104,-2477444.646054,-2483210.859681,-2443038.874035,-2435369.364663,-34176.1749,-2541707.699502,-2523526.611749
1.0625,-330988.923429,15484.930931,-1555724.865881,-11275.471601,-1446477.406797,-1806962.586279,-2176895.579922,-2541874.532923,-3517946.603053,-2477096.495282,-2482865.927561,-2442700.915659,-2434990.636705,-34104.828132,-2541377.787754,-2523188.11693
1.06640625,-328630.724982,13957.680936,-1545069.521078,-10468.126591,-1432740.203469,-1793341.790836,-2167024.513128,-2528295.579946,-3504491.031705,-2463381.822512,-2469220.992234,-2429046.324378,-2422807.505465,-31997.684478,-2527798.298335,-2509631.15807
1.0703125,-329734.185902,14751.614899,-1548358.446164,-10797.501898,-1439235.441594,-1799897.11045,-2170496.901333,-2534713.034,-3510979.296086,-2469827.171543,-2475794.014429,-2435627.929643,-2425389.400171,-32952.551002,-2534359.518809,-2516171.993753
1.07421875,-331089.7745,15996.16003,-1553698.188507,-11135.996716,-1446863.644941,-1807462.550099,-2175722.918001,-2542237.704067,-3518418.135454,-2477441.963845,-2483361.063404,-2443189.077757,-2431837.431411,-34137.014644,-2541880.970225,-2523691.299402
1.078125,-331005.553127,15913.011541,-1553737.348764,-11125.267878,-1446863.644941,-1807431.972913,-2175688.585721,-2542246.287137,-3518387.021826,-2477450.546914,-2483327.267567,-2443156.354804,-2432514.421047,-34059.230573,-2541850.393039,-2523664.477308
1.08203125,-330986.777662,15693.606817,-1553928.85851,-11242.212205,-1446874.373779,-1807425.53561,-2175807.675816,-2542259.161742,-3518381.657407,-2477456.984217,-2483310.101427,-2443146.162408,-2433158.68773,-34260.396273,-2541828.935364,-2523649.993378
1.0859375,-330964.247103,15852.930051,-1554200.298095,-11230.946926,-1446880.274639,-1807415.879657,-2176086.089144,-2542265.062602,-3518373.074338,-2477473.077473,-2483303.664124,-2443135.433571,-2433763.257714,-34386.996554,-2541811.769225,-2523636.582331
1.08984375,-330907.920707,16244.532614,-1554494.80468,-11057.139761,-1446863.644941,-1807385.838912,-2176267.406496,-2542247.360021,-3518335.523407,-2477471.468147,-2483288.10731,-2443102.174175,-2434181.68237,-34170.810481,-2541792.457317,-2523602.786494
1.09375,-330867.151125,16235.949544,-1554714.209403,-10973.45483,-1446860.962732,-1807377.792284,-2176256.677658,-2542245.214253,-3518324.79457,-2477470.395263,-2483278.451357,-2443088.763128,-2434325.985232,-33895.615804,-2541787.629341,-2523589.911889
1.09765625,-330865.005358,15996.16003,-1554906.792034,-11070.550808,-1446848.624569,-1807368.136331,-2176316.222705,-2542231.266765,-3518322.11236,-2477454.302007,-2483252.165705,-2443077.497849,-2434512.13056,-33959.988828,-2541749.005526,-2523572.745749
1.1015625,-330854.812962,16082.52717,-1555110.639943,-11081.279645,-1446866.327151,-1807385.838912,-2176543.674057,-2542249.505788,-3518337.669174,-2477474.686798,-2483267.722519,-2443093.591105,-2434762.11247,-34329.060832,-2541750.614852,-2523584.54747
1.10546875,-330802.241659,16489.150106,-1555313.414969,-10934.831015,-1446863.644941,-1807372.427866,-2176721.772757,-2542244.677811,-3518318.893709,-2477484.342752,-2483272.550496,-2443080.180059,-2434953.622216,-34155.790109,-2541749.005526,-2523570.599982
1.109375,-330735.186426,16567.470618,-1555436.796598,-10794.819688,-1446850.233895,-1807352.579516,-2176696.023547,-2542228.048113,-3518298.508918,-2477471.468147,-2483257.530124,-2443059.795268,-2434962.741728,-33959.452386,-2541743.104666,-2523552.360958
1.11328125,-330725.530472,16322.853127,-1555529.064599,-10894.597875,-1446840.041499,-1807348.287982,-2176684.758268,-2542216.782834,-3518290.998732,-2477451.083356,-2483237.145333,-2443052.285081,-2434977.7621,-34058.694131,-2541732.91227,-2523541.095679
1.1171875,-330736.25931,16324.462452,-1555641.180949,-10937.513225,-1446843.26015,-1807354.188842,-2176860.174758,-2542217.319276,-3518296.899593,-2477451.619798,-2483236.072449,-2443057.6495,-2435112.945451,-34244.839459,-2541728.084293,-2523541.095679
1.12109375,-330715.874519,16711.77348,-1555764.562579,-10852.218968,-1446844.869476,-1807345.605772,-2177031.836156,-2542213.564183,-3518281.342778,-2477458.057101,-2483238.754659,-2443044.774895,-2435254.029662,-34119.848504,-2541724.3292,-2523533.049051
1.125,-330654.183704,16876.997575,-1555837.518673,-10647.834617,-1446845.94236,-1807345.605772,-2176985.165713,-2542217.855718,-3518279.197011,-2477467.176612,-2483244.655519,-2443041.556244,-2435226.134685,-33752.385825,-2541737.740247,-2523534.658377
1.12890625,-330646.137076,16647.400456,-1555867.559417,-10708.988989,-1446853.452546,-1807359.016819,-2176907.918085,-2542225.365904,-3518300.654686,-2477472.004589,-2483248.410612,-2443053.894407,-2435206.286336,-33620.957568,-2541729.693619,-2523544.850772
1.1328125,-330661.157448,16573.907921,-1555927.640906,-10782.481525,-1446850.233895,-1807359.016819,-2177021.107319,-2542220.001485,-3518300.654686,-2477462.885077,-2483240.363984,-2443053.357965,-2435285.679732,-34094.099294,-2541706.626619,-2523538.949911
1.13671875,-330631.116704,16924.740902,-1556013.471605,-10696.114385,-1446848.088127,-1807355.261726,-2177183.649204,-2542217.319276,-3518290.46229,-2477473.077473,-2483244.655519,-2443047.457105,-2435398.332524,-34055.47548,-2541706.090177,-2523535.194818
1.140625,-330584.446261,17172.040602,-1556066.57935,-10502.995313,-1446843.26015,-1807343.460005,-2177153.072018,-2542209.80909,-3518272.223267,-2477474.686798,-2483241.97331,-2443032.973174,-2435370.437547,-33787.254547,-2541710.381712,-2523525.002423
1.14453125,-330557.087726,16971.947786,-1556065.506466,-10525.525871,-1446847.551685,-1807351.506633,-2177037.737016,-2542215.173509,-3518277.587685,-2477468.249496,-2483237.145333,-2443037.264709,-2435296.945011,-33765.796872,-2541720.574107,-2523526.611749
1.1484375,-330585.519145,16828.717807,-1556096.620094,-10625.8405,-1446835.749964,-1807344.532888,-2177102.11004,-2542199.616694,-3518273.832592,-2477447.328263,-2483218.906309,-2443028.681639,-2435337.178151,-33956.233735,-2541703.407967,-2523514.810027
1.15234375,-330568.353005,17093.183648,-1556152.410049,-10584.534476,-1446859.353406,-1807367.599889,-2177257.678182,-2542221.610811,-3518289.925848,-2477475.22324,-2483248.410612,-2443047.457105,-2435457.341129,-33946.577781,-2541724.3292,-2523537.340586
1.15625,-330540.99447,17094.256532,-1556189.424537,-10367.27552,-1446878.128872,-1807381.010935,-2177258.751066,-2542232.339648,-3518287.780081,-2477493.462264,-2483265.576752,-2443051.212198,-2435462.705548,-33598.427009,-2541744.177549,-2523544.31433
1.16015625,-330524.364772,17015.399577,-1556171.185514,-10338.844101,-1446880.811081,-1807384.766028,-2177125.177041,-2542228.584555,-3518296.363151,-2477491.852938,-2483258.066566,-2443051.74864,-2435344.151896,-33250.276238,-2541733.448712,-2523540.559237
1.1640625,-329850.593788,16749.860853,-1553000.81408,-10206.34296,-1442648.821193,-1803185.499094,-2174189.230703,-2538035.754923,-3514137.865798,-2473257.717283,-2479034.123306,-2438834.779124,-2431789.688085,-33025.507096,-2537511.651219,-2519347.729605
1.16796875,-327696.24325,15634.06177,-1542939.310424,-9394.169974,-1430650.762397,-1791330.133835,-2165071.864733,-2526184.681199,-3502448.797518,-2461278.970394,-2467191.096209,-2426964.393492,-2419769.098731,-30957.523699,-2525730.85138,-2507572.830626
1.171875,-330321.589747,17621.042445,-1552725.082961,-10095.299494,-1445276.849899,-1805926.180592,-2174521.288219,-2540620.86828,-3516838.314156,-2475843.367081,-2481795.726037,-2441581.897924,-2430141.73867,-33158.544679,-2540280.764136,-2522090.020429
1.17578125,-330572.108099,17748.179167,-1553853.220207,-10140.360611,-1446909.2425,-1807512.439193,-2175593.099069,-2542236.631183,-3518391.849803,-2477476.296124,-2483369.646474,-2443161.719222,-2432153.395671,-33364.538355,-2541853.075248,-2523671.987494
1.1796875,-330562.988587,17505.707443,-1553991.622209,-10268.570217,-1446881.883965,-1807464.695867,-2175685.903512,-2542217.855718,-3518347.325128,-2477447.864705,-2483308.492101,-2443109.684361,-2432874.37354,-33518.497171,-2541791.384434,-2523618.343308
1.18359375,-328315.833606,16422.631314,-1546065.693625,-9593.189906,-1435515.753688,-1796207.999731,-2168445.011192,-2531165.543934,-3507526.219788,-2466301.675594,-2472169.276735,-2431939.355366,-2424607.804371,-31720.880475,-2530700.448835,-2512545.646733
1.1875,-315263.666542,10031.999353,-1504133.642213,-5856.335861,-1380270.824465,-1740793.554877,-2130775.526854,-2478538.987462,-3457913.393726,-2413379.003212,-2419724.037614,-2379310.116686,-2380313.799419,-20596.149039,-2478643.593626,-2460474.844035
1.19140625,-308314.062156,6817.639687,-1486110.268368,-4054.42763,-1357470.972237,-1718403.007794,-2116983.070014,-2459080.095181,-3442939.691894,-2394250.559121,-2401454.973394,-2360803.408719,-2364305.837668,-14797.212457,-2460741.992085,-2442235.82056
1.1953125,-310030.67613,7619.620278,-1489490.388571,-4592.478823,-1364879.234419,-1723183.777712,-2123269.632252,-2466871.376857,-3454045.647865,-2407215.286161,-2414900.888789,-2372751.578421,-2369047.447329,-15921.058169,-2474592.921089,-2452382.618473
1.19921875,-325646.498876,14802.576876,-1513291.777765,-8186.639331,-1413422.395399,-1757975.787875,-2143989.699362,-2499012.827756,-3484976.34947,-2452082.211027,-2459653.551537,-2417336.871307,-2385749.564856,-27466.360029,-2518709.363784,-2490466.772374
1.203125,-331367.651387,18460.573967,-1525972.727057,-9553.493208,-1443794.124579,-1784933.064572,-2156269.92658,-2520094.993126,-3512863.279922,-2476217.803504,-2483466.742452,-2443058.722384,-2401637.363629,-32505.158485,-2542021.517995,-2517525.436583
1.20703125,-331230.858711,18653.693039,-1528893.653022,-9584.606836,-1447110.944642,-1794969.891902,-2158293.385302,-2526156.786222,-3518755.020947,-2477525.112334,-2484375.474975,-2444129.46035,-2409181.345604,-32650.534231,-2542859.976633,-2523843.11245
1.2109375,-331002.870918,18352.212709,-1531870.905384,-9750.367373,-1447102.361572,-1800526.893202,-2159817.416646,-2530963.30535,-3518989.446043,-2477553.543753,-2484149.096507,-2443888.597952,-2414647.151786,-32788.39979,-2542603.55742,-2524548.533505
1.21484375,-330869.296893,18299.641406,-1534952.763909,-9813.667514,-1447056.227572,-1803702.092612,-2161476.631341,-2534844.462257,-3518834.414343,-2477561.590381,-2483983.872412,-2443709.426368,-2418886.65186,-33004.049421,-2542400.782395,-2524343.07627
1.21875,-330726.603356,18663.348992,-1537872.616991,-9665.073116,-1447033.697013,-1805839.813452,-2163054.843313,-2537764.851781,-3518713.714923,-2477588.948916,-2483882.484899,-2443578.534553,-2422168.603202,-32905.880559,-2542272.572788,-2524187.508129
1.22265625,-330575.32675,18823.74511,-1540467.922743,-9558.321185,-1447040.670757,-1807297.326004,-2164326.210538,-2539980.356691,-3518627.884224,-2477612.552358,-2483812.211014,-2443487.875877,-2424575.081417,-32675.210556,-2542196.398043,-2524076.464662
1.2265625,-330489.496051,18563.034363,-1542718.832817,-9649.516302,-1447018.140199,-1807748.473614,-2165437.181644,-2541629.915432,-3518546.881502,-2477589.485358,-2483719.406571,-2443402.045179,-2426424.732974,-32710.61572,-2542106.812251,-2523970.785614
1.23046875,-330460.52819,18448.772245,-1544678.454957,-9740.174978,-1447017.603757,-1807747.400731,-2166623.791054,-2542278.473649,-3518512.012781,-2477596.995544,-2483673.809013,-2443358.593387,-2427976.659295,-32915.000071,-2542049.949414,-2523911.777009
1.234375,-330397.22805,18773.856017,-1546387.022303,-9668.828209,-1446995.073199,-1807693.220102,-2167761.584254,-2542303.149975,-3518455.686385,-2477600.214195,-2483627.675012,-2443295.829689,-2429287.186776,-32734.755604,-2541989.331483,-2523842.576008
1.23828125,-330321.053305,19022.228601,-1547832.196692,-9485.365091,-1446983.271478,-1807653.523404,-2168633.838729,-2542297.785556,-3518421.890548,-2477618.989661,-2483599.243593,-2443251.841456,-2430207.72102,-32166.127225,-2541936.223738,-2523793.759798
1.2421875,-330266.336234,18809.797622,-1549018.26966,-9519.160929,-1446962.886687,-1807616.508915,-2169329.067389,-2542282.228742,-3518390.776919,-2477601.287079,-2483553.109593,-2443214.826967,-2430889.538633,-32461.170252,-2541873.460039,-2523748.698681
1.24609375,-330258.826048,18640.281992,-1550043.94651,-9622.157767,-1446949.47564,-1807593.441915,-2170106.908096,-2542269.890579,-3518366.637035,-2477586.266707,-2483516.631546,-2443186.93199,-2431549.362129,-32787.326907,-2541833.763341,-2523713.293518
1.25,-330219.665792,18916.013112,-1550950.533265,-9561.003394,-1446955.912942,-1807583.249519,-2170911.034454,-2542272.572788,-3518348.934454,-2477602.359963,-2483512.340011,-2443170.302292,-2432193.628811,-32803.956604,-2541820.352294,-2523695.590937
1.25390625,-330155.82921,19240.560441,-1551720.327344,-9386.123346,-1446961.813803,-1807568.765589,-2171503.802717,-2542276.327881,-3518333.914081,-2477622.208312,-2483513.412894,-2443156.891245,-2432629.756049,-32538.954322,-2541823.034504,-2523682.716332
1.2578125,-329606.512738,18784.048412,-1550308.41235,-9215.534832,-1443965.785976,-1804580.78439,-2170108.517421,-2539327.506939,-3515409.769465,-2474642.273741,-2480525.431696,-2440171.592256,-2430569.282838,-32015.923502,-2538865.09405,-2520722.093668
1.26171875,-326483.884631,16604.485107,-1538472.358998,-8470.417079,-1427837.661247,-1788509.522499,-2159645.755249,-2523592.057656,-3500012.815,-2458712.096061,-2464715.416994,-2424340.119879,-2416253.795177,-29271.486911,-2523167.195698,-2505043.507224
1.265625,-328254.142792,17790.021633,-1542972.56982,-8791.209315,-1435976.02081,-1796597.992968,-2164041.359906,-2531443.420821,-3507792.831396,-2466653.045017,-2472760.435672,-2432411.424209,-2420329.14404,-30734.900324,-2531153.742213,-2513017.179134
1.26953125,-327646.354156,17765.881749,-1539609.615756,-8397.460985,-1432734.83905,-1792852.555853,-2161316.771664,-2528193.119549,-3504568.815776,-2463385.577605,-2469561.632819,-2429193.309449,-2416306.36648,-29739.800661,-2527961.913104,-2509837.688188
1.2734375,-330114.523186,19404.711652,-1548902.934659,-9139.896529,-1446642.630892,-1807244.218259,-2170041.99863,-2541920.130482,-3518173.517963,-2477233.287958,-2483352.480334,-2443009.906174,-2426963.85705,-32081.36941,-2541686.241828,-2523561.48047
1.27734375,-330124.715582,19191.744231,-1549673.26518,-9314.776577,-1447017.067315,-1807739.354103,-2170793.553685,-2542299.394882,-3518480.362711,-2477615.771009,-2483648.059803,-2443314.068712,-2428827.456096,-32391.432809,-2541971.628901,-2523868.325218
1.28125,-330058.733232,19296.350395,-1550379.222677,-9305.120624,-1446993.463873,-1807678.736172,-2171470.00688,-2542285.447393,-3518415.989687,-2477608.260823,-2483585.832546,-2443245.404154,-2430228.642253,-32525.006834,-2541894.381272,-2523793.223356
1.28515625,-329967.001673,19687.416516,-1551127.022639,-9156.526227,-1447006.87492,-1807656.742055,-2172055.264956,-2542299.394882,-3518389.167594,-2477644.73887,-2483582.077453,-2443219.654944,-2431296.69801,-32316.330947,-2541882.579551,-2523764.791937
1.2890625,-329899.946439,19675.078353,-1551786.309694,-9074.450621,-1447031.014804,-1807659.424264,-2172411.462356,-2542325.144091,-3518391.313361,-2477674.779615,-2483584.223221,-2443220.191386,-2431989.780902,-32142.523783,-2541895.454156,-2523761.036844
1.29296875,-329884.389625,19384.326861,-1552378.005073,-9203.196669,-1446997.218966,-1807618.118241,-2172782.143686,-2542295.103347,-3518354.298872,-2477636.692242,-2483527.896825,-2443177.276036,-2432578.794072,-32262.686761,-2541846.101504,-2523709.538425
1.296875,-329864.541276,19403.638769,-1552932.685963,-9243.966251,-1446994.000315,-1807604.707194,-2173295.518553,-2542291.348254,-3518341.424267,-2477635.619358,-2483509.121359,-2443161.18278,-2433127.574101,-32423.619321,-2541821.96162,-2523687.544309
1.30078125,-329804.996229,19790.949797,-1553446.597272,-9131.849901,-1447009.557129,-1807604.707194,-2173754.176349,-2542301.540649,-3518332.304756,-2477662.441452,-2483520.923081,-2443155.28192,-2433549.217409,-32255.713016,-2541830.008248,-2523685.934983
1.3046875,-329748.669833,19866.051658,-1553856.9753,-8982.18262,-1447021.35885,-1807606.852961,-2173987.528561,-2542312.805928,-3518330.158988,-2477675.316057,-2483526.823941,-2443159.573455,-2433779.35097,-31982.664106,-2541843.419295,-2523685.934983
1.30859375,-329748.669833,19566.180654,-1554187.42349,-9094.29897,-1447019.749525,-1807603.097868,-2174192.985796,-2542311.196603,-3518336.059849,-2477668.342312,-2483508.584918,-2443156.354804,-2433949.939483,-31849.626523,-2541824.643829,-2523676.279029
1.3125,-329759.935112,19490.005909,-1554499.096215,-9157.59911,-1447002.583385,-1807585.395287,-2174563.667126,-2542292.421137,-3518320.503035,-2477647.957521,-2483480.153499,-2443136.506455,-2434211.723114,-32258.931668,-2541782.264922,-2523654.284913
1.31640625,-329719.16553,19831.182937,-1554795.748567,-9037.436132,-1446995.073199,-1807567.692705,-2174933.275572,-2542279.546533,-3518295.290267,-2477647.42108,-2483474.252638,-2443116.658105,-2434446.684652,-32203.678155,-2541770.463201,-2523636.582331
1.3203125,-329662.839134,19984.068869,-1555019.981267,-8910.29941,-1446984.344361,-1807551.063007,-2175085.088621,-2542268.281253,-3518273.832592,-2477639.374452,-2483461.378033,-2443096.809756,-2434518.567862,-31959.060664,-2541766.708108,-2523618.87975
1.32421875,-329674.104413,19693.853819,-1555178.76806,-9013.296248,-1446967.714663,-1807536.579077,-2175163.409133,-2542248.432904,-3518256.666452,-2477609.333707,-2483429.191521,-2443079.107175,-2434551.290816,-31984.809874,-2541750.614852,-2523596.349191
1.328125,-329706.290925,19528.093282,-1555340.773504,-9110.928668,-1446985.417245,-1807557.50031,-2175408.026625,-2542265.599044,-3518276.514802,-2477614.698126,-2483435.092382,-2443096.273315,-2434676.818213,-32189.730667,-2541758.66148,-2523611.369564
1.33203125,-329680.541716,19810.261704,-1555508.143366,-9035.826807,-1446997.755408,-1807562.864728,-2175707.361186,-2542276.864323,-3518281.342778,-2477632.937149,-2483447.966987,-2443103.247059,-2434868.864401,-32155.398387,-2541766.708108,-2523617.806866
1.3359375,-329629.043296,20032.348637,-1555642.790275,-8881.867991,-1446988.635896,-1807549.453682,-2175819.477537,-2542268.281253,-3518259.348662,-2477629.718498,-2483443.675452,-2443089.836012,-2434906.951774,-31902.197826,-2541770.999643,-2523604.932261
1.33984375,-329625.288203,19768.95568,-1555721.647229,-8939.803712,-1446980.052826,-1807543.016379,-2175814.64956,-2542259.161742,-3518250.765592,-2477605.578614,-2483422.217777,-2443081.789384,-2434861.890657,-31882.349477,-2541764.56234,-2523595.812749
1.34375,-329666.057785,19523.265305,-1555804.795719,-9089.470993,-1446984.880803,-1807551.599449,-2175972.363469,-2542262.916835,-3518262.567313,-2477599.141312,-2483415.244033,-2443089.29957,-2434930.555216,-32101.217759,-2541762.953015,-2523600.104284
1.34765625,-329660.693367,19719.066586,-1555908.328999,-9059.430249,-1446984.344361,-1807549.453682,-2176229.319123,-2542260.771067,-3518256.130011,-2477602.896405,-2483413.634707,-2443081.789384,-2435086.659799,-32112.483038,-2541755.442829,-2523592.594098
1.3515625,-329617.778017,19991.042613,-1556002.742768,-8880.258665,-1446964.496012,-1807524.777356,-2176326.415101,-2542241.45916,-3518233.599452,-2477598.60487,-2483400.760102,-2443056.040174,-2435102.216614,-31548.146194,-2541731.302945,-2523570.599982
1.35546875,-329606.512738,19777.002308,-1556032.783512,-8916.20027,-1446963.423129,-1807523.16803,-2176267.942937,-2542239.313393,-3518237.354545,-2477591.094684,-2483389.494823,-2443054.967291,-2435015.313031,-31600.181055,-2541707.163061,-2523568.454214
1.359375,-329676.250181,19359.114094,-1556069.261559,-9094.835412,-1446989.70878,-1807553.208775,-2176338.753264,-2542259.161742,-3518265.785964,-2477595.386218,-2483393.786358,-2443078.034291,-2435042.135124,-32058.302409,-2541713.063921,-2523589.375447
1.36328125,-329597.393226,19075.336346,-1555540.329878,-9050.847179,-1446196.847701,-1806764.102788,-2176015.278818,-2541458.790476,-3517467.024024,-2476790.186976,-2482588.587116,-2442271.762165,-2434485.308467,-32079.760084,-2540903.573144,-2522787.394856
1.3671875,-327033.201102,17997.624635,-1544210.141207,-8178.592703,-1431666.246851,-1792352.055592,-2165663.02367,-2527106.288327,-3503238.439946,-2462311.084546,-2468182.44078,-2427829.674224,-2421431.532077,-29520.395937,-2526573.065111,-2508459.03259
1.37109375,-328684.369169,19089.820276,-1549616.402342,-8619.011476,-1441028.766755,-1801760.709496,-2170857.926709,-2536355.618996,-3512533.904616,-2471600.111914,-2477587.33959,-2437267.295988,-2426327.636996,-30739.191859,-2535973.672387,-2517828.526238
1.375,-329857.567532,19539.358561,-1553792.602276,-9094.29897,-1447064.810641,-1807745.254963,-2174934.884898,-2542304.7593,-3518415.989687,-2477600.750637,-2483538.08922,-2443244.33127,-2431591.204595,-32007.340432,-2541892.771947,-2523768.547031
1.37890625,-329848.44802,19549.550956,-1553918.666115,-9121.121063,-1447058.373339,-1807707.704032,-2175216.516878,-2542302.077091,-3518375.756547,-2477601.823521,-2483496.246755,-2443199.270153,-2432480.62521,-32187.584899,-2541837.518434,-2523726.168123
1.3828125,-329803.923345,19860.150797,-1554187.959932,-8961.261387,-1447062.128432,-1807681.954823,-2175458.988602,-2542305.295742,-3518347.325128,-2477621.135428,-2483486.590801,-2443171.911618,-2433173.17166,-32031.480316,-2541821.425178,-2523702.028239
1.38671875,-329754.570693,19786.658262,-1554437.941842,-8970.380899,-1447043.889409,-1807646.54966,-2175499.221742,-2542287.593161,-3518313.52929,-2477602.359963,-2483449.576312,-2443135.970013,-2433565.310665,-31892.541873,-2541794.603085,-2523664.477308
1.390625,-329777.101252,19410.612513,-1554675.049147,-9159.208436,-1447022.431734,-1807623.482659,-2175575.396487,-2542269.890579,-3518290.998732,-2477570.709893,-2483407.733847,-2443112.903012,-2433867.327436,-32044.891363,-2541761.880131,-2523632.827238
1.39453125,-329809.287764,19337.656419,-1554930.395476,-9231.091646,-1447018.140199,-1807618.118241,-2175838.253002,-2542262.916835,-3518280.806336,-2477564.27259,-2483391.104149,-2443103.247059,-2434207.968021,-32255.176575,-2541743.104666,-2523618.87975
1.3984375,-329789.439415,19646.110492,-1555180.913828,-9110.928668,-1447034.233455,-1807621.873334,-2176072.141656,-2542274.182114,-3518282.415662,-2477589.485358,-2483407.733847,-2443102.174175,-2434497.110188,-32141.450899,-2541753.297061,-2523623.171285
1.40234375,-328145.245093,18716.993179,-1549141.114848,-8603.454662,-1438447.944933,-1799089.76544,-2170435.210518,-2533878.866896,-3510027.111772,-2469121.214047,-2474953.410024,-2434630.684213,-2427705.21971,-30602.399183,-2533351.008099,-2515216.590788
1.40625,-322022.297623,14688.314758,-1525973.263499,-7132.531063,-1409751.523704,-1769619.258597,-2149519.878569,-2506076.157817,-3483095.047843,-2440976.255056,-2447106.712712,-2406739.462225,-2401161.003251,-25308.79084,-2505710.304464,-2487583.397339
1.41015625,-328757.861705,18358.11357,-1545715.397086,-8897.961247,-1440790.050124,-1800011.909009,-2168252.428562,-2536230.091599,-3512754.918665,-2471381.243632,-2477641.520219,-2437370.829269,-2420896.699535,-30885.104046,-2536098.1269,-2517948.689216
1.4140625,-330116.132512,19530.775491,-1550093.299162,-9108.246459,-1447117.381944,-1807726.479498,-2172669.490894,-2542322.461882,-3518560.292549,-2477571.782776,-2483686.147176,-2443411.16469,-2427220.276263,-32139.841573,-2542073.016414,-2523968.103405
1.41796875,-329994.360208,19631.09012,-1550504.213632,-9031.535272,-1447103.434456,-1807847.178918,-2172946.294897,-2542318.170347,-3518469.633874,-2477584.120939,-2483604.07157,-2443311.386503,-2428948.691958,-31953.696245,-2541982.89418,-2523879.590497
1.421875,-329939.643137,19285.085116,-1551090.544592,-9202.660227,-1447066.956409,-1807774.759266,-2173184.475086,-2542293.494021,-3518398.287105,-2477553.007311,-2483517.704429,-2443233.065991,-2430289.796625,-32020.215037,-2541901.891458,-2523792.686915
1.42578125,-329947.153324,19052.269346,-1551743.930786,-9351.254624,-1447053.00892,-1807735.599009,-2173595.925998,-2542280.619416,-3518360.736175,-2477538.523381,-2483464.060243,-2443191.223525,-2431385.747359,-32271.269831,-2541843.955737,-2523737.433402
1.4296875,-329913.893928,19271.137627,-1552400.535631,-9250.939995,-1447056.227572,-1807715.75066,-2174068.531283,-2542282.228742,-3518338.742058,-2477554.616637,-2483449.576312,-2443168.692967,-2432255.319626,-32292.191063,-2541820.888736,-2523710.611309
1.43359375,-329848.984462,19463.183816,-1552988.475917,-9125.94904,-1447058.373339,-1807695.902311,-2174351.236147,-2542283.301626,-3518317.284383,-2477565.345474,-2483441.529684,-2443147.771734,-2432834.1404,-32074.395665,-2541814.987876,-2523686.471425
1.4375,-329814.115741,19177.260301,-1553457.326109,-9259.523065,-1447049.790269,-1807677.126846,-2174491.783916,-2542276.327881,-3518298.508918,-2477549.252218,-2483409.879614,-2443127.386943,-2433201.603079,-32074.395665,-2541795.139527,-2523661.258657
1.44140625,-329844.692927,18888.118135,-1553888.62537,-9433.33023,-1447055.154688,-1807680.881939,-2174772.343012,-2542281.6923,-3518302.800453,-2477544.424241,-2483394.3228,-2443127.923385,-2433574.430177,-32312.039413,-2541782.264922,-2523655.357797
1.4453125,-329850.593788,19043.149834,-1554295.248305,-9380.758927,-1447056.764013,-1807673.371753,-2175146.779435,-2542277.937207,-3518289.389406,-2477546.033567,-2483384.130404,-2443115.04878,-2433959.595437,-32388.750599,-2541764.56234,-2523640.873866
1.44921875,-329816.261508,19296.350395,-1554646.081286,-9252.549321,-1447046.571618,-1807649.768311,-2175357.601089,-2542265.599044,-3518258.275778,-2477542.814916,-2483374.474451,-2443089.836012,-2434208.504463,-32168.272992,-2541755.97927,-2523617.806866
1.453125,-329788.902973,19068.362602,-1554885.870801,-9319.068112,-1447034.233455,-1807634.211497,-2175403.198648,-2542253.260881,-3518242.182522,-2477522.966566,-2483349.798125,-2443074.81564,-2434279.851232,-32111.946596,-2541747.932642,-2523598.494959
1.45703125,-329828.063229,18733.086435,-1555094.546687,-9501.994789,-1447047.10806,-1807651.377636,-2175562.521882,-2542265.599044,-3518262.030871,-2477521.893683,-2483345.50659,-2443089.836012,-2434409.133721,-32334.569971,-2541750.07841,-2523607.61447
1.4609375,-329831.818322,18805.506087,-1555312.342085,-9505.21344,-1447055.154688,-1807657.278497,-2175847.908956,-2542269.890579,-3518262.567313,-2477527.794543,-2483347.115916,-2443090.372454,-2434624.783352,-32470.826205,-2541746.859759,-2523608.150912
1.46484375,-328858.712776,18482.568083,-1551354.473991,-9066.403993,-1441493.861853,-1802121.19843,-2172211.36954,-2536774.043652,-3512795.151805,-2471996.006011,-2477822.301128,-2437542.490666,-2430084.33939,-31418.863704,-2536244.57553,-2518103.184474
1.46875,-326854.565961,16821.744063,-1542232.816486,-8462.370451,-1430774.680468,-1791542.028373,-2163864.33409,-2526212.576176,-3502431.631378,-2461310.084022,-2467271.026048,-2426984.241841,-2418806.722022,-29196.385049,-2525775.912497,-2507630.766348
1.47265625,-329773.882601,18353.822035,-1552482.074795,-9469.808277,-1445983.343838,-1806724.40609,-2173606.654836,-2541188.960217,-3517337.205093,-2476397.51153,-2482387.421416,-2442149.453419,-2429803.243852,-31952.623362,-2540819.888213,-2522683.325134
1.4765625,-329984.167812,18665.49476,-1553350.037736,-9566.367813,-1447101.288688,-1807796.753382,-2174653.252918,-2542290.811812,-3518374.147221,-2477515.992822,-2483443.675452,-2443207.316781,-2431651.822525,-32479.409275,-2541853.61169,-2523745.48003
1.48046875,-329927.304974,18963.219996,-1553633.279041,-9401.143718,-1447086.268316,-1807746.864289,-2174939.176433,-2542276.327881,-3518321.039477,-2477518.675032,-2483407.197405,-2443154.209036,-2432496.718466,-32328.66911,-2541808.550573,-2523693.981611
1.484375,-329865.077718,18895.091879,-1553935.832254,-9405.971695,-1447075.539479,-1807716.287102,-2175026.080015,-2542269.890579,-3518295.290267,-2477514.383497,-2483377.15666,-2443122.558966,-2433010.629774,-32183.293364,-2541788.702224,-2523659.11289
1.48828125,-329869.905695,18514.218153,-1554234.093932,-9606.064511,-1447071.784386,-1807706.094707,-2175142.487901,-2542268.817695,-3518285.097871,-2477500.97245,-2483349.798125,-2443110.220803,-2433454.80364,-32330.814878,-2541769.926759,-2523641.94675
1.4921875,-329891.363369,18410.684873,-1554543.62089,-9687.067233,-1447060.519106,-1807689.465009,-2175440.749579,-2542255.406649,-3518267.39529,-2477485.952078,-2483321.366706,-2443091.98178,-2433895.222413,-32543.245857,-2541738.813131,-2523616.733982
1.49609375,-329868.296369,18699.290597,-1554845.637661,-9563.149162,-1447055.154688,-1807670.689544,-2175727.209536,-2542248.432904,-3518244.864731,-2477490.243613,-2483315.465846,-2443070.524105,-2434256.247789,-32435.421042,-2541725.402084,-2523596.349191
1.5,-329829.136113,18726.649133,-1555078.989873,-9496.093928,-1447071.784386,-1807678.736172,-2175798.556304,-2542261.843951,-3518248.083383,-2477506.87331,-2483325.658241,-2443079.107175,-2434382.84807,-32241.229086,-2541746.323317,-2523604.395819
1.50390625,-329844.156485,18361.868663,-1555262.452991,-9662.927349,-1447081.976781,-1807692.147218,-2175825.378397,-2542273.645672,-3518259.885104,-2477500.97245,-2483317.611613,-2443087.690245,-2434464.923676,-32332.424203,-2541753.833503,-2523609.760238
1.5078125,-329881.170974,18188.59794,-1555449.671203,-9779.335234,-1447099.142921,-1807710.386242,-2176034.590725,-2542288.666044,-3518274.369034,-2477506.87331,-2483318.684497,-2443100.028408,-2434640.340166,-32557.193346,-2541755.442829,-2523619.416192
1.51171875,-329873.660788,18444.480711,-1555648.691135,-9683.31214,-1447094.851386,-1807698.048079,-2176285.109077,-2542281.6923,-3518257.739336,-2477509.019078,-2483316.538729,-2443085.544477,-2434854.380471,-32506.231368,-2541745.250433,-2523607.078029
1.515625,-329850.057346,18561.961479,-1555795.139765,-9595.872116,-1447076.612362,-1807673.908195,-2176332.852403,-2542260.771067,-3518228.235034,-2477493.462264,-2483297.226822,-2443058.722384,-2434919.826379,-32281.998668,-2541736.667363,-2523582.401703
1.51953125,-329860.249741,18230.440406,-1555877.751813,-9704.769815,-1447054.081804,-1807654.596288,-2176298.520124,-2542238.776951,-3518211.605336,-2477459.129984,-2483262.894543,-2443041.019802,-2434881.202564,-32314.721622,-2541717.355456,-2523560.407586
1.5234375,-329905.8473,17988.505124,-1555969.483372,-9850.145561,-1447059.446223,-1807664.788683,-2176437.995009,-2542245.750695,-3518221.261289,-2477453.229124,-2483258.066566,-2443049.602872,-2434962.205286,-32542.172973,-2541714.673247,-2523565.772005
1.52734375,-329905.8473,18191.816591,-1556080.526838,-9776.116583,-1447070.17506,-1807673.371753,-2176659.009058,-2542251.115114,-3518221.261289,-2477466.64017,-2483268.795403,-2443053.894407,-2435117.236986,-32553.438253,-2541721.110549,-2523572.209307
1.53125,-329869.905695,18391.372966,-1556169.576188,-9660.781581,-1447053.00892,-1807650.841194,-2176706.215943,-2542233.948974,-3518192.82987,-2477455.911333,-2483254.311473,-2443029.754523,-2435138.694661,-32285.217319,-2541712.527479,-2523551.824516
1.53515625,-329862.395509,18117.787614,-1556194.252514,-9736.956327,-1447064.2742,-1807661.03359,-2176624.140337,-2542244.677811,-3518209.99601,-2477460.73931,-2483253.775031,-2443040.48336,-2435065.738567,-31994.465827,-2541715.209689,-2523559.871144
1.5390625,-329920.867672,17823.281029,-1556231.803445,-9905.935515,-1447094.851386,-1807699.120963,-2176700.315082,-2542277.937207,-3518251.302034,-2477480.587659,-2483271.477612,-2443074.81564,-2435119.919195,-32393.042134,-2541720.037665,-2523590.984773
1.54296875,-329928.9143,17965.438123,-1556304.223097,-9867.3117,-1447082.513223,-1807683.564148,-2176899.871457,-2542259.161742,-3518234.672336,-2477468.785938,-2483258.603008,-2443056.040174,-2435240.618615,-32589.379858,-2541695.897781,-2523573.818633
1.546875,-329898.337114,18192.353033,-1556379.8614,-9734.810559,-1447074.466595,-1807670.689544,-2176962.098713,-2542246.823579,-3518213.214661,-2477468.785938,-2483253.775031,-2443039.410477,-2435269.586476,-32361.392064,-2541693.752014,-2523560.944028
1.55078125,-329908.529509,17653.228957,-1556382.007168,-9768.606397,-1447111.481084,-1807707.704032,-2176859.638317,-2542274.182114,-3518238.427429,-2477484.342752,-2483270.404729,-2443066.769012,-2435163.370986,-32290.581738,-2541725.938526,-2523586.693238
1.5546875,-329980.412719,17465.474303,-1556385.225819,-9954.215283,-1447138.303177,-1807737.744777,-2176872.512921,-2542296.712672,-3518265.249522,-2477490.243613,-2483277.378473,-2443090.372454,-2435165.516754,-32496.038973,-2541741.49534,-2523607.078029
1.55859375,-329997.578859,17849.56668,-1556432.969145,-9966.553446,-1447141.521828,-1807744.182079,-2177042.564993,-2542297.249114,-3518264.176639,-2477489.170729,-2483277.378473,-2443090.908896,-2435305.528081,-32628.003672,-2541738.813131,-2523605.468703
1.5625,-329975.048301,18166.067382,-1556497.878611,-9830.833653,-1447125.428572,-1807718.969312,-2177132.687227,-2542276.864323,-3518234.135894,-2477480.051217,-2483266.113194,-2443065.159686,-2435356.490058,-32422.546437,-2541730.230061,-2523582.401703
1.56640625,-328506.270469,17131.807462,-1549828.296879,-9309.948601,-1438287.548815,-1798943.853252,-2170907.279361,-2533532.32545,-3509551.824278,-2468657.728274,-2474470.612344,-2434259.466441,-2427712.729897,-30951.086396,-2532986.764072,-2514839.472156
1.5703125,-327748.814553,16213.418986,-1545168.762823,-9220.899251,-1434119.395509,-1794904.982436,-2166813.691475,-2529429.08161,-3505597.711277,-2464462.752874,-2470426.377109,-2430232.397346,-2421399.882007,-30100.826037,-2528991.345047,-2510844.053131
1.57421875,-330124.17914,17689.707004,-1554023.808721,-9983.719585,-1446996.682524,-1807731.307475,-2175399.979997,-2542133.097903,-3518230.917243,-2477279.958401,-2483230.171589,-2443061.941035,-2431380.919383,-32526.616159,-2541721.646991,-2523586.693238
1.578125,-330097.357046,18020.691636,-1554187.42349,-9823.323467,-1447131.865875,-1807820.893266,-2175691.804372,-2542267.20837,-3518312.992849,-2477437.135868,-2483333.704869,-2443145.089524,-2432392.648744,-32449.36853,-2541812.842108,-2523685.934983
1.58203125,-330035.12979,17978.312728,-1554364.985748,-9817.422607,-1447112.017526,-1807774.222824,-2175709.506954,-2542251.651555,-3518267.39529,-2477423.188379,-2483288.10731,-2443101.101291,-2432997.75517,-32296.482598,-2541774.218294,-2523640.873866
1.5859375,-330036.202673,17610.850049,-1554582.244704,-10010.541679,-1447115.772619,-1807767.24908,-2175763.151141,-2542259.698184,-3518265.249522,-2477417.287519,-2483265.04031,-2443093.591105,-2433468.751129,-32438.639693,-2541757.588596,-2523628.535703
1.58984375,-330060.342557,17514.290513,-1554844.564777,-10091.007959,-1447111.481084,-1807760.275335,-2176009.377958,-2542256.479532,-3518257.202894,-2477412.459542,-2483246.264845,-2443081.252942,-2433911.315669,-32651.070672,-2541736.130921,-2523610.833122
1.59375,-330045.858627,17815.770843,-1555125.660315,-9974.600074,-1447117.381944,-1807752.228707,-2176249.167472,-2542257.015974,-3518238.427429,-2477425.870589,-2483248.410612,-2443067.305454,-2434285.752092,-32545.928066,-2541729.693619,-2523596.885633
1.59765625,-330012.599231,17871.024355,-1555344.528597,-9886.623607,-1447124.89213,-1807751.155824,-2176271.69803,-2542265.599044,-3518232.526568,-2477435.526542,-2483252.702147,-2443064.086802,-2434449.903303,-32345.298808,-2541742.568224,-2523595.276307
1.6015625,-330009.38058,17526.092234,-1555509.21625,-10034.145121,-1447136.15741,-1807762.957545,-2176262.578519,-2542279.546533,-3518247.546941,-2477434.453658,-2483248.947054,-2443076.961407,-2434537.343328,-32428.983739,-2541751.151294,-2523604.395819
1.60546875,-330051.759488,17356.040163,-1555681.950531,-10150.016564,-1447151.714224,-1807780.660126,-2176439.067893,-2542292.421137,-3518262.567313,-2477440.890961,-2483247.87417,-2443090.908896,-2434720.270004,-32656.435091,-2541752.224177,-2523614.051773
1.609375,-330065.170534,17615.141584,-1555859.512789,-10065.258749,-1447130.792991,-1807753.838033,-2176660.081942,-2542265.599044,-3518227.16215,-2477423.188379,-2483226.416496,-2443058.185942,-2434946.11203,-32614.592625,-2541723.256317,-2523581.865261
1.61328125,-330024.937394,17759.980888,-1555990.941047,-9940.804236,-1447107.725991,-1807724.33373,-2176689.049803,-2542239.849834,-3518190.684103,-2477402.267146,-2483203.349495,-2443024.926546,-2435000.829101,-32384.995506,-2541708.772386,-2523551.288074
1.6171875,-330009.917022,17449.917489,-1556056.386954,-10050.774819,-1447099.679363,-1807716.287102,-2176625.213221,-2542232.87609,-3518187.465452,-2477380.809472,-2483182.428263,-2443019.562128,-2434949.330681,-32413.426925,-2541706.090177,-2523544.31433
1.62109375,-330050.686604,17208.518649,-1556138.46256,-10200.4421,-1447124.89213,-1807747.400731,-2176726.600734,-2542257.552416,-3518216.969754,-2477394.75696,-2483197.985077,-2443047.993546,-2435023.359659,-32644.63337,-2541722.719875,-2523567.917772
1.625,-330065.170534,17409.684349,-1556250.57891,-10143.04282,-1447134.548084,-1807753.838033,-2176920.792689,-2542262.916835,-3518215.896871,-2477407.631565,-2483206.031705,-2443052.285081,-2435204.140568,-32662.335952,-2541724.3292,-2523569.527098
1.62890625,-330034.593348,17627.479747,-1556341.237586,-10008.395911,-1447126.501456,-1807738.817661,-2176958.880062,-2542252.724439,-3518198.730731,-2477407.631565,-2483200.130844,-2443035.118942,-2435252.420336,-32281.462226,-2541721.646991,-2523556.116051
1.6328125,-330030.838255,17369.451209,-1556361.085935,-10074.914703,-1447128.110782,-1807742.036312,-2176860.174758,-2542254.870207,-3518210.532452,-2477407.095123,-2483191.547774,-2443037.801151,-2435155.8608,-32026.652339,-2541705.017293,-2523556.116051
1.63671875,-330085.018883,17068.507322,-1556400.246191,-10233.165054,-1447109.335316,-1807732.380358,-2176911.136736,-2542236.094741,-3518200.876498,-2477376.517937,-2483160.434146,-2443022.780779,-2435162.834545,-32550.219601,-2541663.711269,-2523538.41347
1.640625,-330099.502814,17195.107602,-1556472.129401,-10196.150565,-1447103.970898,-1807726.479498,-2177087.62611,-2542226.438788,-3518188.001894,-2477369.544192,-2483153.460402,-2443013.124825,-2435298.554337,-32678.965649,-2541651.373106,-2523529.293958
1.64453125,-330076.972255,17464.40142,-1556536.502425,-10062.57654,-1447132.938758,-1807748.473614,-2177140.733855,-2542255.94309,-3518205.704475,-2477410.313774,-2483193.1571,-2443035.118942,-2435355.953617,-32444.004112,-2541690.533363,-2523555.579609
1.6484375,-330067.852744,17264.845045,-1556530.065123,-10092.080843,-1447159.22441,-1807773.686382,-2177033.981923,-2542281.6923,-3518231.990127,-2477426.40703,-2483209.786798,-2443059.795268,-2435279.24243,-32353.881878,-2541724.865642,-2523580.255935
1.65234375,-330119.887605,16919.376483,-1556534.8931,-10271.252426,-1447166.198154,-1807787.097429,-2177041.492109,-2542288.129602,-3518244.32829,-2477414.068867,-2483200.667286,-2443069.987663,-2435273.878011,-32550.756043,-2541727.547852,-2523586.156796
1.65625,-330148.855466,16921.52225,-1556577.808449,-10287.345682,-1447179.609201,-1807801.044917,-2177205.643321,-2542298.321998,-3518253.447801,-2477423.188379,-2483211.932565,-2443079.643617,-2435384.921477,-32678.965649,-2541731.839386,-2523596.885633
1.66015625,-330168.703815,16879.143343,-1556627.697543,-10164.500495,-1447193.556689,-1807809.091545,-2177293.619787,-2542298.321998,-3518238.427429,-2477432.844333,-2483218.369868,-2443072.669872,-2435450.367385,-32468.680438,-2541738.813131,-2523593.666982
1.6640625,-329963.783021,16815.306761,-1555597.729158,-10037.363772,-1445778.423044,-1806398.785877,-2176259.896309,-2540891.771423,-3516835.095505,-2476010.736944,-2481797.335362,-2441653.244692,-2434209.577347,-32145.205992,-2540334.944765,-2522183.897756
1.66796875,-327517.071666,15232.803253,-1544058.328159,-9342.671554,-1431276.790056,-1792033.409123,-2165682.872019,-2526562.336273,-3502656.40052,-2461521.442118,-2467407.818724,-2427258.363635,-2420825.889209,-29879.275546,-2526031.258825,-2507894.695746
1.671875,-329552.332109,16363.622709,-1551015.979173,-10041.118865,-1442601.077867,-1803388.27412,-2172538.062637,-2537741.248338,-3513868.035539,-2472775.456044,-2478755.173535,-2438638.4414,-2427702.001059,-31714.979615,-2537338.380496,-2519190.552138
1.67578125,-330387.035654,17205.299998,-1554279.155049,-10139.824169,-1447221.451667,-1807945.884221,-2175807.675816,-2542297.785556,-3518344.642919,-2477396.902728,-2483318.148055,-2443190.150641,-2432070.783624,-32451.514298,-2541863.267644,-2523727.777449
1.6796875,-330328.563491,17169.358393,-1554383.224771,-10126.413122,-1447194.629573,-1807885.802732,-2175824.841955,-2542277.937207,-3518285.634313,-2477381.882355,-2483261.821659,-2443128.459827,-2432756.356329,-32282.53511,-2541812.305666,-2523672.523936
1.68359375,-330331.2457,16795.458412,-1554571.515867,-10317.386427,-1447189.801596,-1807871.318802,-2175879.022584,-2542280.082974,-3518273.29615,-2477371.68996,-2483228.025821,-2443111.293687,-2433308.891452,-32411.281158,-2541788.165782,-2523648.920494
1.6875,-330362.89577,16674.758992,-1554825.25287,-10405.362893,-1447190.87448,-1807861.662848,-2176124.176517,-2542281.155858,-3518263.640197,-2477366.861983,-2483209.250356,-2443098.419082,-2433830.849389,-32616.201951,-2541764.025898,-2523628.535703
1.69140625,-330352.703375,16955.85453,-1555114.931478,-10289.49145,-1447197.311783,-1807853.079778,-2176374.694869,-2542282.228742,-3518248.083383,-2477384.564565,-2483213.005449,-2443086.080919,-2434262.685092,-32508.913578,-2541760.807247,-2523616.733982
1.6953125,-330316.225328,17019.691112,-1555347.210806,-10203.660751,-1447198.921108,-1807844.496708,-2176416.537335,-2542284.910951,-3518235.208778,-2477391.001867,-2483211.396123,-2443078.034291,-2434457.41349,-32296.482598,-2541766.171666,-2523608.687354
1.69921875,-330323.199072,16671.54034,-1555518.872204,-10344.20852,-1447177.999875,-1807826.257685,-2176412.2458,-2542265.062602,-3518215.896871,-2477356.669588,-2483174.918076,-2443056.040174,-2434556.655235,-32369.438692,-2541741.49534,-2523583.474586
1.703125,-330376.306817,16477.348385,-1555693.21581,-10469.199475,-1447194.093131,-1807843.960267,-2176583.370755,-2542277.937207,-3518233.06301,-2477363.10689,-2483177.063844,-2443068.378337,-2434798.054075,-32594.207835,-2541744.177549,-2523592.594098
1.70703125,-330384.889887,16719.820108,-1555873.99672,-10385.514544,-1447203.212643,-1807847.71536,-2176813.504316,-2542284.910951,-3518231.453685,-2477380.809472,-2483188.329123,-2443069.451221,-2435021.213892,-32457.415158,-2541747.932642,-2523593.13054
1.7109375,-330358.604235,16872.70604,-1556013.471605,-10280.90838,-1447198.384666,-1807833.767871,-2176860.174758,-2542279.546533,-3518222.334173,-2477391.001867,-2483186.183356,-2443056.040174,-2435056.082613,-31930.092803,-2541729.157177,-2523582.401703
1.71484375,-330356.458468,16566.934176,-1556089.64635,-10362.983985,-1447162.443061,-1807803.190685,-2176804.384804,-2542245.750695,-3518195.51208,-2477347.550076,-2483138.976471,-2443023.853662,-2435028.187636,-32240.692644,-2541676.049432,-2523549.678749
1.71875,-330410.102655,16312.12429,-1556172.258398,-10513.187708,-1447161.370177,-1807806.409336,-2176912.746061,-2542244.677811,-3518197.657847,-2477333.066146,-2483124.492541,-2443024.390104,-2435114.018335,-32568.458625,-2541663.711269,-2523546.460098
1.72265625,-330424.586585,16498.806059,-1556281.692538,-10437.549405,-1447167.80748,-1807808.018662,-2177124.640599,-2542246.823579,-3518194.439196,-2477340.576332,-2483129.85696,-2443020.635011,-2435245.983034,-32594.744276,-2541661.02906,-2523544.850772
1.7265625,-330406.347562,16727.866736,-1556371.814772,-10312.022008,-1447168.343922,-1807802.117801,-2177179.357669,-2542245.214253,-3518182.101033,-2477350.232285,-2483133.612053,-2443013.124825,-2435280.315313,-32353.345436,-2541670.148572,-2523538.949911
1.73046875,-330416.539957,16481.639919,-1556395.418214,-10381.223009,-1447172.635457,-1807809.091545,-2177091.917645,-2542248.432904,-3518186.92901,-2477343.258541,-2483126.638308,-2443017.41636,-2435217.015173,-32317.940273,-2541679.804525,-2523539.486353
1.734375,-330476.085004,16173.722288,-1556431.896261,-10558.248825,-1447173.171899,-1807816.601731,-2177148.244041,-2542246.287137,-3518192.82987,-2477327.165285,-2483115.909471,-2443019.025686,-2435256.175429,-32541.10009,-2541670.685014,-2523538.41347
1.73828125,-330499.688446,16294.421708,-1556497.342169,-10535.181825,-1447183.900736,-1807825.721243,-2177332.780043,-2542252.187997,-3518196.584963,-2477337.35768,-2483123.956099,-2443025.99943,-2435385.994361,-32631.222323,-2541675.51299,-2523545.387214
1.7421875,-330481.449423,16577.126572,-1556564.397402,-10394.634055,-1447180.145643,-1807813.919522,-2177399.835277,-2542248.432904,-3518179.955266,-2477343.258541,-2483125.565425,-2443012.588383,-2435433.201245,-32402.161646,-2541678.1952,-2523536.804144
1.74609375,-330458.918865,16402.246523,-1556568.688937,-10398.389149,-1447175.854108,-1807812.310196,-2177294.692671,-2542246.823579,-3518176.200172,-2477332.529704,-2483118.055238,-2443011.5155,-2435335.568826,-32317.940273,-2541686.241828,-2523534.658377
1.75,-330502.370656,16063.215263,-1556570.298263,-10584.534476,-1447158.687968,-1807801.581359,-2177299.520647,-2542229.120997,-3518166.007777,-2477298.733866,-2483088.550936,-2442998.640895,-2435322.694221,-32520.715299,-2541662.638386,-2523515.882911
1.75390625,-330532.947842,16108.812822,-1556605.166984,-10593.117546,-1447150.104898,-1807792.998289,-2177461.526091,-2542215.70995,-3518151.523847,-2477286.932145,-2483075.139889,-2442985.76629,-2435417.644431,-32665.018161,-2541641.180711,-2523501.398981
1.7578125,-330521.146121,16418.339779,-1556664.17559,-10437.549405,-1447137.230293,-1807772.077056,-2177547.893232,-2542200.153136,-3518126.847521,-2477279.958401,-2483067.093261,-2442965.381499,-2435470.215734,-32467.607554,-2541632.597641,-2523482.623515
1.76171875,-330517.391028,16086.818705,-1556658.274729,-10440.231614,-1447161.370177,-1807797.826266,-2177442.750626,-2542216.246392,-3518139.185684,-2477291.760122,-2483079.431424,-2442977.719662,-2435375.801966,-32334.569971,-2541658.346851,-2523500.326097
1.765625,-329442.361527,14962.972994,-1551210.70757,-10163.427611,-1440004.699231,-1800695.87239,-2172398.051309,-2535127.167121,-3511101.06839,-2470126.506105,-2475939.926617,-2435842.50639,-2429223.350194,-31399.015355,-2534559.075184,-2516412.856151
1.76953125,-328239.122419,14531.673733,-1544537.370746,-9736.956327,-1432943.514936,-1793768.26212,-2166543.861216,-2528151.277083,-3504274.845633,-2463052.983648,-2469008.024813,-2428911.677469,-2420789.411162,-30138.376968,-2527677.598915,-2509534.598533
1.7734375,-330712.655868,16368.987127,-1554021.662953,-10435.940079,-1446816.974499,-1807588.077496,-2175699.314558,-2541842.882853,-3517905.833472,-2476882.991419,-2482835.886816,-2442748.122543,-2431287.042056,-32363.537832,-2541434.11415,-2523280.384932
1.77734375,-330731.967775,16425.313523,-1554324.752608,-10443.986707,-1447241.836457,-1807968.41478,-2175991.675376,-2542269.354137,-3518278.124127,-2477321.800866,-2483220.515635,-2443126.314059,-2432385.138558,-32318.476715,-2541819.279411,-2523670.378169
1.78125,-330728.212682,16069.652566,-1554477.63854,-10598.481965,-1447230.571178,-1807938.910477,-2176031.372074,-2542265.599044,-3518252.374918,-2477306.244052,-2483175.454518,-2443094.663989,-2433028.332356,-32451.514298,-2541776.364061,-2523635.509448
1.78515625,-330755.034775,15951.098913,-1554732.448427,-10686.994873,-1447238.081364,-1807936.228268,-2176264.724286,-2542274.182114,-3518247.010499,-2477311.072029,-2483161.50703,-2443087.690245,-2433636.120991,-32675.210556,-2541757.588596,-2523622.098401
1.7890625,-330740.550845,16243.459731,-1555030.710105,-10566.295453,-1447232.716946,-1807915.843477,-2176512.023987,-2542264.52616,-3518217.506196,-2477316.436448,-2483149.168867,-2443063.550361,-2434115.163578,-32587.770532,-2541738.276689,-2523595.276307
1.79296875,-330703.536356,16340.555708,-1555283.910666,-10476.173219,-1447233.789829,-1807904.041756,-2176557.621546,-2542266.671928,-3518203.022266,-2477322.87375,-2483147.559541,-2443050.675756,-2434351.734442,-32381.776855,-2541739.886014,-2523581.865261
1.796875,-330707.827891,16007.961751,-1555476.493296,-10608.137918,-1447219.305899,-1807889.021383,-2176551.184243,-2542253.797323,-3518189.074777,-2477299.80675,-2483117.518797,-2443035.118942,-2434476.725397,-32461.170252,-2541723.792758,-2523564.162679
1.80078125,-330757.716984,15813.233353,-1555665.857275,-10737.420408,-1447189.265155,-1807860.589964,-2176722.309199,-2542223.220137,-3518162.252684,-2477261.719377,-2483071.384796,-2443002.395988,-2434689.156376,-32700.959766,-2541676.049432,-2523525.538865
1.8046875,-330762.008519,16059.996612,-1555856.294138,-10655.881245,-1447199.45755,-1807863.272174,-2176952.44276,-2542226.97523,-3518159.570475,-2477278.885517,-2483082.113633,-2443004.005313,-2434908.024658,-32681.647859,-2541678.1952,-2523525.538865
1.80859375,-330735.722868,16236.485986,-1556010.252954,-10534.108941,-1447208.04062,-1807863.808616,-2177004.477621,-2542234.485416,-3518155.815382,-2477293.369447,-2483094.451796,-2443000.25022,-2434977.7621,-32369.975134,-2541691.606246,-2523527.14819
1.8125,-330747.524589,15943.588727,-1556098.765862,-10624.767616,-1447231.10762,-1807889.557825,-2176946.005457,-2542258.6253,-3518187.465452,-2477310.535587,-2483104.10775,-2443025.462988,-2434925.727239,-32153.789062,-2541696.970665,-2523548.605865
1.81640625,-330815.652706,15679.659328,-1556196.934723,-10786.77306,-1447238.081364,-1807900.286663,-2177048.465854,-2542262.916835,-3518196.584963,-2477304.098285,-2483094.988238,-2443032.436732,-2435013.703706,-32667.163928,-2541676.049432,-2523550.751633
1.8203125,-330828.527311,15861.513121,-1556315.488376,-10735.811083,-1447232.716946,-1807891.167151,-2177254.995973,-2542254.333765,-3518182.637475,-2477300.879634,-2483089.087378,-2443016.879918,-2435201.458359,-32777.670953,-2541659.956176,-2523537.877028
1.82421875,-330803.314543,16103.448403,-1556417.948773,-10608.67436,-1447237.544923,-1807889.021383,-2177312.395252,-2542257.552416,-3518176.736614,-2477319.118657,-2483100.352657,-2443014.734151,-2435239.00929,-32550.756043,-2541674.976549,-2523541.632121
1.828125,-330785.07552,15868.486866,-1556451.74461,-10651.58971,-1447240.763574,-1807895.995128,-2177222.80946,-2542262.916835,-3518184.2468,-2477313.754238,-2483097.670448,-2443020.098569,-2435166.053196,-32519.642415,-2541687.851153,-2523546.460098
1.83203125,-330832.818846,15557.887025,-1556490.904867,-10829.151968,-1447246.127992,-1807906.723965,-2177265.72481,-2542268.281253,-3518195.51208,-2477303.025401,-2483089.087378,-2443029.754523,-2435236.32708,-32749.239534,-2541683.559618,-2523550.215191
1.8359375,-330847.302776,15670.003375,-1556560.642309,-10813.058712,-1447253.638179,-1807913.697709,-2177449.187928,-2542275.254998,-3518197.121405,-2477312.681355,-2483095.52468,-2443032.973174,-2435354.344291,-32853.845698,-2541685.168944,-2523553.433842
1.83984375,-330827.990869,15966.655727,-1556636.280613,-10666.610082,-1447243.982225,-1807899.213779,-2177523.216906,-2542263.989718,-3518174.054405,-2477312.144913,-2483092.306029,-2443014.734151,-2435405.84271,-32633.904533,-2541682.486735,-2523537.340586
