Index,Timestamp,Fp1,Fp2,F3,F4,T5,T6,O1,O2,F7,F8,C3,C4,T3,T4,P3,P4
0.0,0.0,0.0,0.0,0.0,0.0,0.0,0.0,0.0,0.0,0.0,0.0,0.0,0.0,0.0,0.0,0.0,0.0
1.0,0.00390625,-310116.506829,-3072.202572,-640107.111944,995763.778182,-765063.734658,-906805.086947,-882828.817705,-1083719.859567,-3747904.211033,-3203744.018524,-3210854.019028,-2939662.806948,-2924828.04356,-420091.917526,-3084694.157206,-2608122.957721
2.0,0.0078125,-310103.095782,-3388.703273,-640079.216967,995561.003156,-765084.655891,-906833.518366,-882732.258169,-1083745.608776,-3747925.132266,-3203739.726989,-3210850.800377,-2939677.82732,-2924621.513441,-420146.098154,-3084701.130951,-2608133.686558
3.0,0.01171875,-310151.911992,-3521.740856,-640132.861153,995410.262991,-765094.311845,-906850.684506,-882880.316124,-1083757.946939,-3747930.496684,-3203731.143919,-3210844.899517,-2939681.582413,-2924845.209699,-420347.263854,-3084690.402113,-2608127.785698
4.0,0.015625,-310152.984876,-3346.860808,-640196.161294,995520.233574,-765108.259333,-906858.194692,-883047.149545,-1083774.576637,-3747929.423801,-3203742.94564,-3210855.091912,-2939676.217994,-2925105.384005,-420186.867736,-3084689.865671,-2608127.785698
5.0,0.01953125,-310116.506829,-3329.694668,-640179.531596,995579.242179,-765135.081427,-906875.897274,-882974.193451,-1083801.39873,-3747943.371289,-3203767.085524,-3210865.284308,-2939679.436645,-2924932.649724,-419640.769916,-3084688.256346,-2608147.634047
6.0,0.0234375,-310102.022898,-3314.674296,-640139.834897,995378.612921,-765125.425473,-906872.14218,-882848.666054,-1083794.424986,-3747932.10601,-3203735.971896,-3210830.952028,-2939660.124738,-2924670.329651,-419966.390129,-3084636.757927,-2608127.249256
7.0,0.02734375,-310185.171388,-3489.554344,-640185.968898,995191.931151,-765139.909403,-906894.136297,-882960.245962,-1083807.836033,-3747942.298405,-3203719.87864,-3210822.368958,-2939660.66118,-2924829.116443,-420368.185087,-3084616.909577,-2608121.348396
8.0,0.03125,-310199.118876,-3248.691946,-640254.633457,995262.205036,-765140.445845,-906890.917646,-883145.854848,-1083812.66401,-3747932.10601,-3203718.269315,-3210818.613865,-2939648.859459,-2925126.841679,-420344.581645,-3084606.18074,-2608110.619558
9.0,0.03515625,-310130.990759,-3006.220222,-640256.242783,995289.027129,-765137.763636,-906881.261692,-883107.231034,-1083821.24708,-3747917.62208,-3203720.951524,-3210817.00454,-2939633.839087,-2925041.547423,-420055.975921,-3084606.18074,-2608106.864465
10.0,0.0390625,-310084.856759,-3246.546179,-640210.108782,995159.744639,-765130.789892,-906880.188808,-882954.345102,-1083831.975917,-3747909.575452,-3203697.348082,-3210793.401097,-2939623.646691,-2924738.99421,-419996.430873,-3084592.769693,-2608100.427163
11.0,0.04296875,-310133.672969,-3509.402693,-640241.758852,995211.7795,-765130.25345,-906890.381204,-883019.254568,-1083834.658126,-3747912.257661,-3203672.135314,-3210774.08919,-2939620.42804,-2924826.970676,-420199.742341,-3084572.384903,-2608087.016116
12.0,0.046875,-310152.448434,-3338.81418,-640310.959853,995250.403315,-765154.393334,-906912.911762,-883213.982965,-1083863.089545,-3747926.205149,-3203690.374337,-3210792.864656,-2939630.620436,-2925148.299354,-420243.730574,-3084580.431531,-2608098.281395
13.0,0.05078125,-310104.705108,-3043.771153,-640330.808202,995384.513782,-765157.611985,-906908.083786,-883220.956709,-1083876.500592,-3747913.330545,-3203698.420965,-3210795.546865,-2939617.745831,-2925145.617145,-419967.463013,-3084584.186624,-2608099.890721
14.0,0.0546875,-310126.162782,-3241.18176,-639697.270357,995286.881362,-760130.61525,-901925.611726,-879057.094938,-1078891.346322,-3742892.771112,-3198614.561393,-3205718.124594,-2934541.932886,-2921393.742727,-419836.034755,-3079560.944982,-2603076.649079
15.0,0.05859375,-310254.372389,-3555.536694,-639514.880123,995092.152964,-759895.11727,-901763.606282,-878559.813328,-1078652.09325,-3742699.115598,-3198322.200575,-3205513.203801,-2934350.959581,-2920925.96542,-419978.728292,-3079363.534375,-2602829.88582
16.0,0.0625,-310235.596923,-3400.504994,-640210.645224,995105.027569,-765164.049287,-906991.232275,-882800.386286,-1083885.083662,-3747953.027243,-3203621.709779,-3210811.640121,-2939653.687436,-2924711.099233,-420156.29055,-3084600.816321,-2608077.896604
17.0,0.06640625,-310166.395922,-3069.520363,-640238.540201,995253.085524,-765165.122171,-906962.264414,-882823.453286,-1083902.786243,-3747924.595824,-3203641.021686,-3210793.401097,-2939617.745831,-2924721.291628,-419919.183245,-3084575.603554,-2608085.943232
18.0,0.0703125,-310084.320317,-3165.007015,-640192.942642,995171.009919,-765160.294194,-906942.952507,-882660.9114,-1083910.832871,-3747900.45594,-3203624.391988,-3210760.141702,-2939589.314412,-2924388.161229,-419757.177801,-3084550.927228,-2608080.578814
19.0,0.07421875,-310104.705108,-3493.845879,-640191.869759,994930.14752,-765175.851008,-906958.509321,-882645.891028,-1083924.78036,-3747905.283917,-3203609.371616,-3210742.43912,-2939586.632202,-2924298.575437,-419906.845082,-3084534.833972,-2608079.50593
20.0,0.078125,-310159.422178,-3493.845879,-640258.38855,994855.045659,-765191.407823,-906973.529693,-882852.421147,-1083941.9465,-3747911.184777,-3203612.590267,-3210740.293353,-2939587.168644,-2924599.519324,-420061.876781,-3084523.568693,-2608082.188139
21.0,0.08203125,-310132.063643,-3356.516761,-640303.449667,994997.739196,-765184.97052,-906956.363554,-882970.438358,-1083944.628709,-3747887.044893,-3203611.517383,-3210729.564515,-2939560.346551,-2924764.743419,-419862.856849,-3084509.621204,-2608069.849976
22.0,0.0859375,-310081.638107,-3305.554784,-640263.216527,994966.089125,-765185.506962,-906952.072019,-882850.811821,-1083947.310918,-3747868.269428,-3203594.351243,-3210708.643282,-2939538.888876,-2924504.569114,-419655.253846,-3084498.355925,-2608060.730465
23.0,0.08984375,-310117.579713,-3425.18132,-640248.732596,994727.908936,-765182.824753,-906956.363554,-882791.803216,-1083944.092267,-3747860.2228,-3203564.846941,-3210677.529654,-2939526.550713,-2924355.974717,-419756.104917,-3084473.143157,-2608043.027883
24.0,0.09375,-310164.786597,-3494.382321,-640307.20476,994547.128027,-765181.751869,-906961.19153,-882967.756148,-1083945.701593,-3747856.467707,-3203546.607917,-3210661.436398,-2939516.89476,-2924620.440557,-419943.85957,-3084450.076157,-2608025.861743
25.0,0.09765625,-310142.256038,-3171.980759,-640360.312505,994674.26475,-765191.407823,-906967.092391,-883114.204778,-1083971.450802,-3747857.004149,-3203563.237615,-3210676.993212,-2939515.821876,-2924848.964792,-419801.166034,-3084458.122785,-2608034.981255
26.0,0.1015625,-310069.299945,-3085.613619,-640337.245505,994967.698451,-765161.367078,-906931.687228,-883014.963033,-1083953.211779,-3747814.625241,-3203529.441777,-3210639.978724,-2939472.906527,-2924656.918604,-419552.793449,-3084430.227808,-2608001.721859
27.0,0.10546875,-310057.498223,-3403.187204,-640306.131876,994762.777658,-765154.929776,-906931.687228,-882913.57552,-1083948.920244,-3747806.042171,-3203496.182382,-3210606.182886,-2939456.276829,-2924442.878299,-419602.682543,-3084407.160808,-2607981.337068
28.0,0.109375,-310123.480573,-3555.536694,-640355.484528,994600.772214,-765184.434078,-906967.628833,-883057.878382,-1083980.570314,-3747834.47359,-3203504.22901,-3210617.448165,-2939479.343829,-2924648.335534,-419811.894871,-3084412.525226,-2607996.893882
29.0,0.11328125,-310139.037387,-3270.686063,-640419.857552,994697.868192,-765189.798497,-906967.092391,-883232.758431,-1083990.762709,-3747824.281195,-3203505.301893,-3210620.666816,-2939468.614992,-2924927.285305,-419735.183684,-3084401.796389,-2607991.529464
30.0,0.1171875,-310073.591479,-3096.342456,-640411.274482,994768.678518,-765185.506962,-906954.754228,-883167.848965,-1083998.809337,-3747811.40659,-3203504.765452,-3210609.937979,-2939450.91241,-2924778.690908,-419270.088586,-3084391.603993,-2607983.482836
31.0,0.12109375,-310054.279572,-3377.974436,-640368.895575,994571.267911,-765217.693474,-906990.695833,-883031.056289,-1084034.214501,-3747844.665986,-3203519.249382,-3210620.130374,-2939475.588736,-2924487.402974,-419223.954585,-3084385.703133,-2608009.768487
32.0,0.125,-310124.553457,-3597.37916,-640407.519389,994374.930188,-765247.197777,-907028.783206,-883129.22515,-1084061.036594,-3747870.415195,-3203523.004475,-3210627.104119,-2939495.973527,-2924622.049883,-419799.020266,-3084376.047179,-2608022.643092
33.0,0.12890625,-310135.282294,-3430.009297,-640474.574622,994426.965049,-765262.754591,-907042.194252,-883316.443362,-1084083.567152,-3747876.316056,-3203537.488405,-3210638.90584,-2939500.265062,-2924922.99377,-419827.988127,-3084378.729389,-2608026.934627
34.0,0.1328125,-310091.830503,-3418.207576,-640475.111064,994424.28284,-765260.072382,-907033.074741,-883288.548385,-1084088.395129,-3747854.321939,-3203533.19687,-3210629.249886,-2939475.588736,-2924858.620746,-419547.965473,-3084368.536993,-2608016.20579
35.0,0.13671875,-310052.133805,-3360.271854,-640421.466878,994466.125305,-765264.900358,-907043.267136,-883129.22515,-1084103.415502,-3747855.931265,-3203518.71294,-3210613.693072,-2939472.906527,-2924548.020905,-419478.764472,-3084366.927667,-2608016.20579
36.0,0.140625,-310099.877131,-3552.854485,-640447.216087,994373.320862,-765267.046126,-907053.995973,-883181.796453,-1084106.097711,-3747855.931265,-3203490.817963,-3210594.917607,-2939467.005666,-2924611.857487,-419679.39373,-3084345.469993,-2608000.648975
37.0,0.14453125,-310121.334806,-3402.650762,-640515.344204,994384.586142,-765283.139382,-907069.016346,-883377.061293,-1084125.94606,-3747861.295684,-3203497.255265,-3210602.964235,-2939470.224317,-2924927.285305,-419741.084545,-3084342.787783,-2608003.867627
38.0,0.1484375,-310077.883014,-3097.41534,-640535.728995,994519.23305,-765285.821591,-907062.042601,-883395.836758,-1084139.357107,-3747849.493962,-3203507.447661,-3210604.57356,-2939458.959038,-2924943.915003,-419474.472937,-3084347.079318,-2608006.549836
39.0,0.15234375,-310046.769386,-3254.056365,-640379.08797,994409.798909,-764334.173719,-906116.832032,-882483.885584,-1083201.656723,-3746889.263021,-3202528.977696,-3209623.421386,-2938487.462817,-2923985.293387,-419350.554866,-3083388.457702,-2607050.073987
40.0,0.15625,-310201.801086,-3615.618183,-639441.387587,994190.930628,-757556.230731,-899434.375696,-876937.07668,-1076471.993503,-3740148.334521,-3195665.204008,-3202805.781699,-2931673.578223,-2919157.316584,-419471.254286,-3076630.363063,-2600276.958975
41.0,0.16015625,-310245.789319,-3490.090786,-640173.630735,994230.090884,-763587.44664,-905468.810257,-881623.969272,-1082458.684738,-3746198.862338,-3201710.903849,-3208916.927447,-2937791.161274,-2923348.536891,-419620.385125,-3082676.599345,-2606284.571443
42.0,0.1640625,-310165.859481,-3129.601852,-640440.242343,994433.402352,-765320.690312,-907154.847044,-883001.551986,-1084193.001293,-3747896.164405,-3203472.042498,-3210642.124491,-2939499.72862,-2924550.166672,-419433.703355,-3084378.729389,-2608017.815115
43.0,0.16796875,-310078.955898,-3205.240155,-640395.181226,994362.592025,-765308.888591,-907122.12409,-882833.645682,-1084193.001293,-3747860.2228,-3203452.194149,-3210594.917607,-2939455.203945,-2924211.671854,-419259.89619,-3084341.7149,-2608007.086278
44.0,0.171875,-310093.97627,-3537.297671,-640391.962575,994120.656743,-765310.497917,-907123.733416,-882804.141379,-1084197.292828,-3747852.176172,-3203429.66359,-3210561.658211,-2939436.964922,-2924100.091946,-419398.834634,-3084311.137713,-2607996.893882
45.0,0.17578125,-310146.011132,-3548.026508,-640457.408483,994036.971812,-765316.398778,-907129.634277,-883005.307079,-1084205.875898,-3747848.957521,-3203424.299171,-3210552.538699,-2939427.308968,-2924387.088345,-419559.767194,-3084289.143597,-2607989.383696
46.0,0.1796875,-310116.506829,-3205.776597,-640507.834018,994179.128907,-765301.914847,-907102.275741,-883134.053127,-1084201.047921,-3747817.30745,-3203417.325427,-3210536.445443,-2939395.122456,-2924568.942138,-419369.866773,-3084264.467271,-2607973.29044
47.0,0.18359375,-310040.868526,-3185.391806,-640475.111064,994163.035651,-765292.795335,-907085.109602,-883018.718126,-1084203.193689,-3747794.24045,-3203397.477078,-3210511.232675,-2939368.836804,-2924323.788205,-419148.852724,-3084249.98334,-2607959.879394
48.0,0.1875,-310040.868526,-3515.839996,-640455.262715,993930.756322,-765292.795335,-907090.47402,-882954.345102,-1084205.875898,-3747792.631125,-3203370.118543,-3210486.019908,-2939361.86306,-2924157.491226,-419236.82919,-3084233.353643,-2607948.077672
49.0,0.19140625,-310101.486457,-3609.180881,-640511.589111,993775.188181,-765318.008103,-907119.978323,-883125.470057,-1084230.015782,-3747812.479474,-3203377.092287,-3210494.066536,-2939375.810549,-2924408.54602,-419427.802495,-3084232.817201,-2607953.978533
50.0,0.1953125,-310102.022898,-3446.102553,-640568.451949,993826.6866,-765350.731057,-907149.482626,-883281.57464,-1084272.931131,-3747826.426962,-3203411.424567,-3210525.180164,-2939392.440247,-2924652.090627,-419297.447121,-3084254.811317,-2607977.581975
51.0,0.19921875,-310057.498223,-3431.618623,-640541.629856,994114.755883,-765352.876824,-907145.727533,-883188.233756,-1084279.368434,-3747809.260822,-3203403.377939,-3210512.842001,-2939372.055456,-2924466.481741,-418968.071815,-3084246.764689,-2607971.144673
52.0,0.203125,-310060.180433,-3435.373716,-640505.151809,993942.558043,-765348.048848,-907145.191091,-883079.336057,-1084275.613341,-3747806.042171,-3203374.410078,-3210477.97328,-2939353.816432,-2924227.76511,-418840.935092,-3084204.922224,-2607950.759882
53.0,0.20703125,-310118.116154,-3578.067252,-640552.895135,993774.651739,-765345.90308,-907153.237719,-883213.446523,-1084275.076899,-3747804.432846,-3203352.952403,-3210460.270698,-2939348.452014,-2924430.003694,-419345.190447,-3084169.51706,-2607935.73951
54.0,0.2109375,-310115.433945,-3300.190365,-640618.341043,993868.529066,-765334.637801,-907140.363114,-883389.935898,-1084273.467573,-3747784.584497,-3203344.369333,-3210450.078303,-2939325.385013,-2924725.046721,-419334.46161,-3084148.059386,-2607916.964044
55.0,0.21484375,-310048.378712,-3102.243316,-640610.830857,993950.604671,-765337.32001,-907132.316486,-883333.609502,-1084283.659969,-3747772.782775,-3203348.124426,-3210446.859651,-2939312.510408,-2924608.638836,-419055.511839,-3084151.814479,-2607918.036928
56.0,0.21875,-310019.947293,-3369.927808,-640568.451949,993763.38646,-765367.360755,-907164.502998,-883190.915965,-1084316.382923,-3747795.313334,-3203352.952403,-3210452.760512,-2939332.358758,-2924320.569553,-419029.226187,-3084167.371293,-2607937.348835
57.0,0.22265625,-310085.929642,-3599.524927,-640603.857112,993562.22076,-765366.824313,-907172.549626,-883282.647524,-1084316.919365,-3747790.485357,-3203322.911659,-3210429.693512,-2939322.702804,-2924439.659648,-419237.365632,-3084140.5492,-2607915.89116
58.0,0.2265625,-310099.340689,-3387.093948,-640670.375904,993612.646295,-765367.360755,-907170.403858,-883473.620829,-1084321.210899,-3747780.829403,-3203320.765891,-3210428.620628,-2939311.973967,-2924752.941698,-419245.948702,-3084129.28392,-2607910.526742
59.0,0.23046875,-310037.649874,-3117.263689,-640680.568299,993649.660784,-765362.532778,-907158.602137,-883453.236038,-1084331.403295,-3747763.126822,-3203319.693007,-3210424.329093,-2939293.734943,-2924708.953465,-418962.170954,-3084127.138153,-2607903.552998
60.0,0.234375,-309994.198083,-3324.330249,-640633.897857,993597.089481,-765378.089592,-907178.450486,-883290.15771,-1084357.688946,-3747772.246334,-3203315.937914,-3210420.037558,-2939302.318013,-2924390.306996,-418875.803813,-3084137.330548,-2607914.281835
61.0,0.23828125,-310061.789758,-3603.28002,-640656.964857,993566.512295,-765389.354871,-907202.59037,-883334.145943,-1084371.099993,-3747787.266706,-3203303.06331,-3210410.918046,-2939307.14599,-2924424.102834,-419066.777118,-3084127.138153,-2607913.208951
62.0,0.2421875,-310085.929642,-3463.268693,-640726.165858,993573.486039,-765385.063336,-907197.762394,-883532.092992,-1084370.027109,-3747774.928543,-3203291.79803,-3210399.116325,-2939290.516292,-2924734.166233,-419137.051003,-3084102.998269,-2607894.433486
63.0,0.24609375,-310034.967665,-3335.595529,-640746.014207,993716.179575,-765382.381127,-907185.960673,-883563.206621,-1084373.245761,-3747754.00731,-3203292.334472,-3210394.82479,-2939273.350152,-2924758.842559,-418838.789325,-3084100.852501,-2607887.459742
64.0,0.25,-309994.198083,-3435.373716,-640689.687811,993612.109853,-765397.401499,-907200.981045,-883398.518967,-1084390.948342,-3747760.981054,-3203289.652263,-3210384.632395,-2939269.058617,-2924418.738415,-418457.915599,-3084089.587222,-2607890.678393
65.0,0.25390625,-310067.154177,-3528.178159,-640457.408483,993391.095804,-763463.528569,-905289.638673,-881848.201972,-1082471.0229,-3745830.863217,-3201313.936867,-3208413.208534,-2937311.045803,-2923032.572631,-418867.757185,-3082111.189617,-2605944.4673
66.0,0.2578125,-310222.722318,-3497.06453,-639651.136357,993350.326222,-757707.507337,-899628.567651,-877199.933195,-1076761.672111,-3740114.002241,-3195491.933285,-3202652.895767,-2931540.004199,-2919126.739398,-419147.243398,-3076387.891339,-2600194.346928
67.0,0.26171875,-310152.984876,-3098.488223,-640520.708623,993620.692923,-764638.336258,-906529.892269,-882544.503515,-1083647.976357,-3747043.221836,-3202465.141113,-3209663.654526,-2938541.107004,-2923808.804012,-418909.599651,-3083337.495725,-2607110.155476
68.0,0.265625,-310048.378712,-3138.721363,-640593.128275,993621.229365,-765440.853291,-907294.32193,-882992.968916,-1084458.003576,-3747814.625241,-3203271.949681,-3210432.912163,-2939310.901083,-2924006.214619,-418732.573835,-3084109.435571,-2607916.964044
69.0,0.26953125,-310046.769386,-3469.169553,-640582.399438,993384.658502,-765436.561756,-907281.983767,-882933.960311,-1084458.540017,-3747796.92266,-3203245.127588,-3210388.387488,-2939285.151873,-2923845.818501,-418862.392767,-3084068.129548,-2607905.698765
70.0,0.2734375,-310076.273689,-3491.700112,-640645.699578,993290.781175,-765434.415988,-907277.15579,-883126.006499,-1084463.904436,-3747785.120938,-3203231.716541,-3210366.929813,-2939264.767082,-2924109.211458,-419030.299071,-3084033.260826,-2607890.141951
71.0,0.27734375,-310041.404967,-3144.622224,-640697.734439,993434.547595,-765446.754151,-907277.15579,-883261.18985,-1084488.04432,-3747779.220078,-3203254.783542,-3210377.122209,-2939257.256896,-2924289.455925,-418850.054604,-3084034.870152,-2607899.261463
72.0,0.28125,-309980.787037,-3098.488223,-640668.766578,993434.011153,-765465.529617,-907286.811744,-883154.97436,-1084513.257088,-3747780.292962,-3203265.512379,-3210380.34086,-2939256.720454,-2924043.76555,-418616.16595,-3084046.671873,-2607914.281835
73.0,0.28515625,-309994.734525,-3420.353344,-640648.918229,993206.02336,-765474.649128,-907301.295674,-883090.064894,-1084521.840158,-3747782.975171,-3203244.054704,-3210361.028953,-2939253.501803,-2923859.229548,-418690.194927,-3084035.943036,-2607910.526742
74.0,0.2890625,-310041.941409,-3524.423066,-640702.562416,993071.912893,-765454.264337,-907284.665976,-883267.627152,-1084503.064692,-3747758.298845,-3203203.821564,-3210321.332255,-2939223.461059,-2924109.211458,-418884.386883,-3083991.418361,-2607873.512253
75.0,0.29296875,-310029.066805,-3287.315761,-640762.643905,993108.39094,-765449.972802,-907273.937139,-883437.679224,-1084508.429111,-3747741.669147,-3203203.285122,-3210315.431394,-2939204.685593,-2924365.63067,-418769.051882,-3083975.861547,-2607861.17409
76.0,0.296875,-309969.521757,-3325.403133,-640739.576905,993234.991221,-765470.894035,-907293.249046,-883361.504479,-1084540.079181,-3747744.351357,-3203218.841936,-3210327.769557,-2939211.122896,-2924189.677738,-418501.903832,-3083994.637012,-2607876.730904
77.0,0.30078125,-309978.641269,-3345.251482,-640703.6353,993244.110733,-765480.013547,-907308.80586,-883256.898315,-1084550.271577,-3747745.42424,-3203198.993587,-3210305.238999,-2939204.685593,-2923944.523805,-418520.142856,-3083984.981058,-2607870.293602
78.0,0.3046875,-310037.649874,-3480.971274,-640748.696416,993076.74087,-765474.112686,-907311.488069,-883391.545223,-1084543.834274,-3747739.52338,-3203172.707936,-3210283.781324,-2939192.883872,-2924130.132691,-418728.2823,-3083958.158965,-2607850.981695
79.0,0.30859375,-310033.358339,-3211.677457,-640810.923673,993165.253778,-765479.477105,-907311.488069,-883577.690551,-1084553.490228,-3747731.476752,-3203173.78082,-3210285.927091,-2939183.76436,-2924419.274857,-418676.247439,-3083950.112337,-2607844.00795
80.0,0.3125,-309966.303106,-2989.054083,-640807.16858,993261.813314,-765490.742384,-907312.024511,-883535.311644,-1084573.875019,-3747730.94031,-3203187.728308,-3210290.755068,-2939180.545709,-2924309.304274,-418264.796527,-3083958.695407,-2607852.59102
81.0,0.31640625,-309946.454757,-3241.18176,-640764.253231,993084.251056,-765479.477105,-907303.441441,-883392.618107,-1084568.5106,-3747717.529263,-3203160.906215,-3210256.422789,-2939158.015151,-2924009.969712,-418084.55206,-3083910.952081,-2607831.669787
82.0,0.3203125,-310003.854037,-3477.216181,-640796.976184,992880.403147,-765478.404221,-907310.415186,-883478.985247,-1084567.974158,-3747715.383496,-3203130.86547,-3210230.673579,-2939147.286313,-2924121.013179,-418641.378718,-3083865.890964,-2607810.748555
83.0,0.32421875,-310016.1922,-3273.368272,-640861.88565,992922.245612,-765479.477105,-907310.415186,-883674.786529,-1084575.484344,-3747712.701286,-3203132.474796,-3210236.57444,-2939141.385453,-2924438.050322,-418713.79837,-3083859.990103,-2607806.993461
84.0,0.328125,-309955.574269,-2984.226106,-640872.078046,993037.580614,-765486.450849,-907309.342302,-883669.42211,-1084594.25981,-3747708.409751,-3203144.812959,-3210244.084626,-2939132.802383,-2924408.009578,-418426.801971,-3083869.109615,-2607812.35788
85.0,0.33203125,-309915.341129,-3173.590085,-640823.798278,992796.718216,-765503.080547,-907330.799977,-883506.880225,-1084621.618345,-3747720.211473,-3203143.203633,-3210240.865975,-2939141.921895,-2924091.508876,-418326.487342,-3083878.765569,-2607824.159601
86.0,0.3359375,-309970.594641,-3461.122925,-640842.573743,992823.540309,-765502.544105,-907342.065256,-883539.066737,-1084624.836996,-3747716.992821,-3203114.235772,-3210219.4083,-2939135.484592,-2924119.403853,-418511.559786,-3083857.307894,-2607809.675671
87.0,0.33984375,-309993.125199,-3376.36511,-640908.556093,992902.933705,-765519.173803,-907357.62207,-883732.185809,-1084644.148903,-3747724.503007,-3203124.96461,-3210227.99137,-2939139.776127,-2924432.149462,-418591.489624,-3083855.162126,-2607812.35788
88.0,0.34375,-309951.819176,-3327.012459,-640930.550209,993053.137428,-765517.028036,-907346.356791,-883770.273181,-1084648.440438,-3747703.045333,-3203124.428168,-3210223.163393,-2939119.391336,-2924483.647881,-418327.560225,-3083849.261266,-2607805.384136
89.0,0.34765625,-309901.930082,-3187.537573,-640875.296697,992960.869427,-765518.100919,-907345.283907,-883612.02283,-1084648.97688,-3747690.70717,-3203100.824726,-3210201.705718,-2939103.834522,-2924173.584482,-418171.992084,-3083839.06887,-2607796.264624
90.0,0.3515625,-309952.355618,-3352.761668,-640876.906023,992721.079912,-765504.153431,-907342.601698,-883582.518528,-1084636.638717,-3747674.613914,-3203056.300051,-3210163.081904,-2939082.913289,-2924101.701272,-418327.023784,-3083805.273033,-2607768.369647
91.0,0.35546875,-310068.227061,-3340.423505,-640185.968898,992701.231563,-759770.126315,-901666.510304,-879152.581591,-1078946.063393,-3741956.680054,-3197272.383842,-3204389.894532,-2933302.215731,-2920403.471041,-418416.073133,-3078068.027266,-2602032.196764
92.0,0.359375,-310101.486457,-2994.954943,-640188.114666,992884.694682,-760827.989677,-902768.89834,-879722.282853,-1079999.098778,-3743042.438393,-3198315.226831,-3205513.203801,-2934404.603768,-2920937.230699,-418049.683338,-3079169.342419,-2603084.695707
93.0,0.36328125,-309972.740409,-2965.45064,-640776.054952,992921.709171,-765548.141664,-907440.770559,-883238.659291,-1084697.256648,-3747746.497124,-3203065.956004,-3210248.912603,-2939149.432081,-2923819.53285,-418092.598688,-3083864.281638,-2607798.946833
94.0,0.3671875,-309959.865804,-3293.753063,-640757.815928,992687.284075,-765543.850129,-907423.067978,-883150.146383,-1084702.621067,-3747724.503007,-3203042.889004,-3210199.023509,-2939115.099801,-2923615.68494,-418243.875294,-3083819.220521,-2607793.582415
95.0,0.37109375,-309988.297223,-3337.204854,-640813.605882,992587.505887,-765539.558594,-907410.193373,-883331.463734,-1084702.084625,-3747705.727542,-3203027.33219,-3210169.519206,-2939088.81415,-2923858.693106,-418417.682459,-3083775.76873,-2607778.562043
96.0,0.375,-309953.964943,-2995.491385,-640865.640743,992726.444331,-765543.313687,-907402.683187,-883475.766596,-1084716.032114,-3747690.70717,-3203040.206795,-3210167.909881,-2939072.184452,-2924052.885062,-418248.166829,-3083765.039893,-2607777.489159
97.0,0.37890625,-309885.836826,-2930.045477,-640839.355092,992737.173168,-765545.459455,-907393.563675,-883379.743502,-1084723.5423,-3747673.54103,-3203032.160167,-3210150.207299,-2939050.726777,-2923826.506594,-418005.695105,-3083758.066149,-2607774.806949
98.0,0.3828125,-309900.320756,-3250.837714,-640815.215208,992511.867584,-765566.380688,-907418.240001,-883303.568757,-1084747.145742,-3747689.634286,-3203026.795748,-3210142.697113,-2939060.382731,-2923625.340894,-418067.38592,-3083760.211916,-2607783.390019
99.0,0.38671875,-309951.282734,-3372.073576,-640866.713627,992368.637606,-765551.896757,-907406.974722,-883467.183526,-1084731.588928,-3747668.176611,-3202989.244817,-3210107.828392,-2939034.633521,-2923858.693106,-418265.869411,-3083717.833009,-2607749.594182
100.0,0.390625,-309935.72592,-3063.619502,-640925.185791,992464.124258,-765543.850129,-907394.636559,-883644.209343,-1084735.880463,-3747647.791821,-3202986.562608,-3210100.854647,-2939014.24873,-2924126.914039,-418162.872572,-3083700.666869,-2607735.646693
101.0,0.39453125,-309865.452035,-2909.660686,-640910.70186,992423.354676,-765549.214548,-907394.636559,-883574.4719,-1084755.728812,-3747641.354518,-3202992.99991,-3210103.000415,-2939006.738544,-2923969.200131,-417890.896546,-3083709.786381,-2607742.083996
102.0,0.3984375,-309856.332523,-3199.339294,-640872.078046,992474.853095,-765543.850129,-907396.245884,-883452.163154,-1084756.265254,-3747631.698564,-3202961.886282,-3210071.886786,-2938991.718172,-2923717.608895,-417894.115197,-3083692.083799,-2607724.917856
103.0,0.40234375,-309911.049594,-3390.849041,-640912.847628,992372.392699,-765550.823873,-907411.266257,-883572.326132,-1084763.77544,-3747637.599425,-3202947.402352,-3210061.157949,-2938993.86394,-2923882.83299,-418098.499548,-3083678.13631,-2607715.261902
104.0,0.40625,-309916.414012,-3254.056365,-640976.68421,992449.640328,-765578.182409,-907433.796815,-883762.226553,-1084795.42551,-3747650.47403,-3202972.078678,-3210085.297833,-2939004.592777,-2924177.876017,-418068.458804,-3083688.865148,-2607731.355158
105.0,0.41015625,-309869.207128,-3189.683341,-640971.319791,992550.491399,-765589.447688,-907435.406141,-883730.576483,-1084808.300115,-3747637.062983,-3202972.61512,-3210084.224949,-2938991.18173,-2924090.435993,-417754.10387,-3083691.547357,-2607730.818716
106.0,0.4140625,-309843.457919,-3112.435712,-640920.357814,992382.048652,-765600.712967,-907449.890071,-883578.226993,-1084823.856929,-3747651.010472,-3202968.323585,-3210074.568996,-2938994.400381,-2923780.909035,-417484.273611,-3083680.282078,-2607736.183135
107.0,0.41796875,-309909.440268,-3325.403133,-640948.789233,992171.763441,-765619.488432,-907476.712164,-883652.255971,-1084845.314603,-3747671.395263,-3202963.495608,-3210071.350345,-2939006.738544,-2923865.130408,-417928.447476,-3083657.215078,-2607738.328903
108.0,0.421875,-309923.387757,-3145.695108,-641016.91735,992200.731301,-765616.269781,-907474.029955,-883855.567438,-1084844.778162,-3747660.129983,-3202955.985422,-3210063.303717,-2938993.86394,-2924184.313319,-418080.796967,-3083638.439612,-2607723.844972
109.0,0.42578125,-309865.452035,-2846.360546,-641033.010606,992321.967163,-765621.097758,-907468.665536,-883864.150508,-1084858.189208,-3747646.718937,-3202963.495608,-3210064.913042,-2938979.916451,-2924181.63111,-417799.701428,-3083640.048938,-2607724.917856
110.0,0.4296875,-309824.146011,-3024.459246,-640985.26728,992097.198021,-765642.555433,-907493.341862,-883705.900157,-1084891.448604,-3747659.0571,-3202967.787143,-3210067.05881,-2938991.18173,-2923863.521083,-417686.512194,-3083656.142194,-2607743.156879
111.0,0.43359375,-309878.863082,-3323.257366,-640997.605443,992085.3963,-765625.389293,-907489.050327,-883734.868018,-1084878.037557,-3747645.646053,-3202924.871793,-3210028.434995,-2938969.724055,-2923873.713478,-417866.22022,-3083619.664147,-2607710.433925
112.0,0.4375,-309904.612291,-3215.43255,-641063.587792,992142.79558,-765620.024874,-907483.685909,-883934.960834,-1084876.428232,-3747632.771448,-3202909.314979,-3210016.096832,-2938953.094358,-2924188.604854,-417961.706872,-3083596.597147,-2607692.194902
113.0,0.44140625,-309855.25964,-2874.791965,-641094.701421,992297.290837,-765640.409665,-907492.80542,-883988.605021,-1084907.005418,-3747638.672309,-3202934.527747,-3210040.773158,-2938960.604544,-2924255.660088,-417703.678334,-3083616.981938,-2607712.043251
114.0,0.4453125,-309797.323918,-2972.424385,-641050.713188,992214.142348,-765635.045246,-907485.831676,-883831.427554,-1084908.614744,-3747623.115495,-3202911.460747,-3210017.169716,-2938942.36552,-2923945.596688,-417535.77203,-3083605.716658,-2607700.777972
115.0,0.44921875,-309843.99436,-3303.409017,-641051.786071,991973.816392,-765650.602061,-907512.65377,-883807.824112,-1084926.317325,-3747639.745192,-3202899.659026,-3210006.977321,-2938952.021474,-2923864.057525,-417684.902869,-3083602.498007,-2607701.314414
116.0,0.453125,-309899.247873,-3289.461528,-640929.477326,991920.708647,-764289.649044,-906164.575358,-882893.190729,-1083578.238914,-3746278.255734,-3201517.784776,-3208625.639513,-2937571.220108,-2923202.088261,-417836.715917,-3082221.696642,-2606330.705444
117.0,0.45703125,-309992.588758,-3149.450201,-639891.998755,992086.469184,-757603.974057,-899561.512418,-877412.364174,-1076944.598787,-3739614.038421,-3194774.710509,-3201924.944153,-2930841.556888,-2918480.326948,-417451.550657,-3075573.036143,-2599656.832177
118.0,0.4609375,-309908.367384,-3103.852642,-640742.259114,992146.014231,-764361.532254,-906307.268895,-882411.465932,-1083657.095868,-3746386.080549,-3201556.945033,-3208760.286422,-2937683.8729,-2922672.083696,-417180.647514,-3082333.812992,-2606399.906445
119.0,0.46484375,-309872.962221,-3193.438434,-640932.159535,991977.035043,-765709.610666,-907627.988771,-883362.577362,-1085003.028512,-3747713.77417,-3202900.195467,-3210069.741019,-2939010.493637,-2923367.312356,-417633.940891,-3083621.809914,-2607742.083996
120.0,0.46875,-309898.711431,-3251.910597,-640989.558815,991862.772925,-765712.292875,-907616.18705,-883523.509922,-1085011.07514,-3747697.680914,-3202891.075956,-3210040.236716,-2938984.744428,-2923583.498428,-417845.835429,-3083579.431007,-2607734.573809
121.0,0.47265625,-309863.84271,-2917.707314,-641045.885211,991994.737624,-765695.663177,-907582.391212,-883672.10432,-1085004.101396,-3747660.129983,-3202883.56577,-3210015.023949,-2938943.974846,-2923786.273454,-417695.095264,-3083544.562285,-2607715.798344
122.0,0.4765625,-309799.469685,-2830.803732,-641022.281769,992014.585974,-765683.325015,-907558.78777,-883580.909202,-1084998.736977,-3747629.552797,-3202866.936072,-3209982.837437,-2938908.033241,-2923570.623823,-417446.72268,-3083521.495285,-2607699.705088
123.0,0.48046875,-309805.370546,-3148.377317,-640995.996117,991791.962599,-765687.616549,-907563.615747,-883497.224271,-1085005.710722,-3747626.334146,-3202842.796188,-3209956.551785,-2938898.913729,-2923354.437751,-417494.466006,-3083503.256262,-2607688.439809
124.0,0.484375,-309855.25964,-3292.143737,-641051.249629,991635.858016,-765704.246247,-907585.073422,-883653.865296,-1085023.949745,-3747637.062983,-3202837.968211,-3209957.624669,-2938907.496799,-2923567.941614,-417697.777474,-3083495.746076,-2607687.366925
125.0,0.48828125,-309844.530802,-2998.710036,-641117.768421,991673.408946,-765706.928457,-907582.927654,-883837.328415,-1085036.287908,-3747627.40703,-3202845.478397,-3209959.233994,-2938896.23152,-2923838.308315,-417613.556101,-3083490.918099,-2607682.538948
126.0,0.4921875,-309776.939127,-2825.439313,-641110.258235,991782.306645,-765712.292875,-907583.464096,-883779.392693,-1085058.818467,-3747623.651936,-3202853.525025,-3209960.84332,-2938889.794217,-2923697.224104,-417338.361423,-3083498.428285,-2607690.585576
127.0,0.49609375,-309772.11115,-3104.389084,-641073.243746,991812.883832,-765708.537782,-907586.682747,-883657.620389,-1085060.964234,-3747613.459541,-3202824.557164,-3209931.339017,-2938874.773845,-2923436.513357,-417328.169027,-3083479.65282,-2607677.17453
128.0,0.5,-309828.437546,-3311.455645,-641114.54977,991632.102922,-765715.511527,-907599.557352,-883775.6376,-1085067.937978,-3747618.287518,-3202806.318141,-3209918.464413,-2938873.164519,-2923589.935731,-417535.235588,-3083461.950238,-2607666.982134
129.0,0.50390625,-309830.583314,-3104.389084,-641183.214329,991699.158156,-765720.875945,-907601.703119,-883973.048207,-1085078.130374,-3747611.850215,-3202810.609676,-3209922.755947,-2938868.336543,-2923901.608455,-417520.751658,-3083453.90361,-2607662.690599
130.0,0.5078125,-309779.621336,-3087.759386,-641185.360096,991810.738064,-765751.453132,-907624.233678,-883952.126974,-1085112.462653,-3747619.896843,-3202837.968211,-3209944.750064,-2938877.456054,-2923838.308315,-417236.437468,-3083477.507052,-2607687.903367
131.0,0.51171875,-309759.236545,-3091.514479,-641138.153212,991644.441085,-765762.181969,-907633.889631,-883807.28767,-1085122.118607,-3747616.678192,-3202818.656304,-3209924.901715,-2938869.945868,-2923545.411056,-417167.236467,-3083473.215517,-2607683.07539
132.0,0.515625,-309821.463802,-3250.301272,-641167.121073,991423.963478,-765761.109085,-907640.326934,-883873.806462,-1085119.436397,-3747612.923099,-3202790.224885,-3209899.688947,-2938860.826357,-2923623.731568,-417362.501307,-3083448.002749,-2607661.617716
133.0,0.51953125,-309839.166384,-3084.004293,-641235.24919,991345.106524,-765775.056574,-907655.883748,-884078.190813,-1085143.576281,-3747619.896843,-3202800.41728,-3209909.344901,-2938866.190775,-2923947.206014,-417415.609052,-3083448.539191,-2607666.445692
134.0,0.5234375,-309782.303546,-2773.940894,-641254.024655,991641.758876,-765735.359876,-907609.749747,-884100.721371,-1085117.827072,-3747566.252657,-3202768.230768,-3209871.79397,-2938813.08303,-2923973.491666,-417107.154978,-3083412.597586,-2607626.212552
135.0,0.52734375,-309728.659359,-2931.118361,-641210.572864,991655.169923,-765739.114969,-907615.114166,-883939.252369,-1085128.555909,-3747571.080634,-3202761.257024,-3209858.382923,-2938806.109286,-2923650.01722,-416745.59316,-3083396.50433,-2607625.67611
136.0,0.53125,-309773.720476,-3237.426667,-641224.520352,991420.208385,-765753.062457,-907639.790492,-883952.663416,-1085145.185607,-3747589.856099,-3202750.528187,-3209851.409179,-2938815.76524,-2923634.460406,-417175.283095,-3083369.145795,-2607624.603227
137.0,0.53515625,-309800.006127,-3150.523084,-641291.575586,991393.386292,-765768.619271,-907658.029516,-884145.246046,-1085165.033956,-3747600.584936,-3202758.038373,-3209858.919365,-2938824.884751,-2923945.596688,-417422.046354,-3083365.390702,-2607628.35832
138.0,0.5390625,-309752.262801,-2805.054522,-641326.444307,991545.19934,-765771.301481,-907651.055771,-884201.572442,-1085178.445003,-3747590.928983,-3202766.085001,-3209863.2109,-2938812.010147,-2924038.401131,-417174.210212,-3083364.85426,-2607629.431204
139.0,0.54296875,-309695.936405,-2882.302151,-641285.674725,991474.925455,-765785.248969,-907661.784609,-884043.858533,-1085196.147584,-3747590.392541,-3202762.86635,-3209859.455807,-2938809.327937,-2923741.212337,-416997.184395,-3083370.755121,-2607636.94139
140.0,0.546875,-309737.242429,-3212.750341,-641284.601842,991234.063057,-765800.805783,-907685.924493,-884009.526254,-1085213.313724,-3747602.730704,-3202747.845977,-3209848.72697,-2938817.374565,-2923645.725685,-417137.195723,-3083366.463586,-2607636.94139
141.0,0.55078125,-309778.548453,-3216.505434,-641347.901982,991155.206103,-765799.7329,-907690.216028,-884188.697837,-1085215.995934,-3747597.902727,-3202733.362047,-3209838.534574,-2938810.400821,-2923932.185642,-417292.763864,-3083347.151678,-2607624.066785
142.0,0.5546875,-309785.522197,-3065.228828,-641079.681048,991242.109685,-763345.511358,-905248.869091,-882343.874257,-1082785.914276,-3745132.415906,-3200266.265901,-3207367.683335,-2936318.091907,-2922422.101786,-417087.306629,-3080890.247928,-2605166.090151
143.0,0.55859375,-309859.014733,-3041.088944,-640204.744363,991389.094757,-758228.928832,-900220.263031,-877838.835459,-1077713.319983,-3740050.165659,-3195083.701024,-3202244.663506,-2931183.806799,-2918367.137714,-416682.29302,-3075819.799402,-2600059.700019
144.0,0.5625,-309822.536686,-3107.071293,-641081.826816,991314.529337,-765265.4368,-907233.703999,-883152.828592,-1084695.110881,-3747095.256698,-3202133.62004,-3209331.59701,-2938299.171722,-2922848.573071,-416912.963022,-3082837.531905,-2607072.068104
145.0,0.56640625,-309832.729081,-3168.225666,-641217.546608,991200.26722,-765838.356714,-907783.020471,-883716.092553,-1085272.32233,-3747644.036727,-3202703.321302,-3209869.648203,-2938843.660217,-2923405.93617,-417232.682375,-3083356.807632,-2607636.94139
146.0,0.5703125,-309794.105267,-2843.141895,-641272.263679,991326.8675,-765823.872784,-907746.005982,-883847.52081,-1085266.957911,-3747602.730704,-3202696.884,-3209841.216784,-2938797.526216,-2923601.20101,-417097.499025,-3083317.110934,-2607620.311692
147.0,0.57421875,-309709.347452,-2737.999289,-641252.41533,991356.908245,-765817.435481,-907722.938981,-883751.497716,-1085271.249446,-3747579.663703,-3202690.983139,-3209816.004016,-2938764.803262,-2923389.842914,-416843.762022,-3083298.335469,-2607614.947273
148.0,0.578125,-309698.618615,-3048.062688,-641224.520352,991139.649289,-765845.8669,-907752.979726,-883658.693273,-1085305.581725,-3747601.65782,-3202697.420442,-3209817.0769,-2938781.969402,-2923153.808493,-416878.094301,-3083307.991422,-2607636.404948
149.0,0.58203125,-309767.819615,-3206.313039,-641275.48233,990976.034519,-765846.939784,-907758.880586,-883811.579205,-1085308.263935,-3747594.684076,-3202678.108535,-3209797.228551,-2938771.240565,-2923362.484379,-417081.405769,-3083280.632887,-2607617.093041
150.0,0.5859375,-309759.236545,-2920.389524,-641341.464679,991072.594055,-765837.28383,-907743.323772,-884002.016068,-1085303.9724,-3747571.080634,-3202667.916139,-3209782.208178,-2938744.418471,-2923658.60029,-417014.350535,-3083258.102329,-2607598.854017
151.0,0.58984375,-309685.74401,-2726.197568,-641336.100261,991153.060335,-765826.554993,-907722.938981,-883956.418509,-1085302.899516,-3747545.867866,-3202656.65086,-3209763.432713,-2938719.205704,-2923544.338172,-416734.327881,-3083246.300607,-2607587.052296
152.0,0.59375,-309651.948172,-2996.564269,-641296.403563,990968.524333,-765824.945667,-907721.866098,-883826.599577,-1085307.191051,-3747536.748354,-3202628.219441,-3209736.074178,-2938707.403983,-2923273.435029,-416709.651555,-3083229.67091,-2607575.250575
153.0,0.59765625,-309720.612731,-3218.11476,-641335.563819,990723.3704,-765854.44997,-907760.489912,-883929.596416,-1085337.768237,-3747563.570447,-3202635.193185,-3209746.803015,-2938728.325215,-2923404.326845,-416915.645232,-3083235.57177,-2607587.052296
154.0,0.6015625,-309730.805127,-3005.147339,-641402.619052,990770.040842,-765848.54911,-907755.125493,-884129.15279,-1085343.669098,-3747552.84161,-3202630.90165,-3209741.438596,-2938712.768401,-2923724.046197,-416917.790999,-3083219.478514,-2607574.714133
155.0,0.60546875,-309674.47873,-2939.701431,-641405.837703,991137.503521,-765822.263458,-907720.793214,-884118.423953,-1085324.357191,-3747507.244051,-3202601.933789,-3209707.106317,-2938666.634401,-2923688.104592,-416634.549693,-3083189.974211,-2607543.064063
156.0,0.609375,-309637.464242,-3026.605013,-641357.021494,991002.320171,-765844.257575,-907744.933098,-883960.710044,-1085349.033517,-3747517.972889,-3202597.642255,-3209704.960549,-2938674.681029,-2923383.942054,-416552.474088,-3083200.166607,-2607555.938668
157.0,0.61328125,-309683.0618,-3164.470573,-641380.088494,990780.76968,-765853.377086,-907759.95347,-884011.672021,-1085357.080145,-3747524.946633,-3202578.866789,-3209689.403735,-2938677.363238,-2923442.414217,-416746.666044,-3083184.073351,-2607545.20983
158.0,0.6171875,-309703.446591,-3015.339734,-641447.680169,990789.889191,-765834.601621,-907743.323772,-884213.374163,-1085343.669098,-3747500.806749,-3202555.263347,-3209666.873177,-2938651.077587,-2923775.544617,-416813.184835,-3083150.813955,-2607515.169086
159.0,0.62109375,-309653.557498,-2690.792405,-641471.283611,990932.046286,-765840.502482,-907741.178005,-884238.586931,-1085359.762354,-3747490.077912,-3202563.846417,-3209674.919805,-2938640.348749,-2923814.168431,-416531.552855,-3083157.251258,-2607518.387737
160.0,0.625,-309613.8608,-2829.730848,-641424.613169,990824.757913,-765844.794016,-907744.396656,-884071.217069,-1085368.345424,-3747489.54147,-3202554.190463,-3209658.290107,-2938632.302121,-2923492.839753,-416195.203804,-3083144.376653,-2607516.24197
161.0,0.62890625,-309663.749893,-3139.794247,-641435.342006,990589.796375,-765881.272063,-907786.775564,-884070.144185,-1085403.750587,-3747525.483075,-3202563.846417,-3209669.018944,-2938660.197098,-2923451.533729,-416472.54425,-3083133.647815,-2607535.017435
162.0,0.6328125,-309709.883894,-3070.056804,-641501.860798,990529.714886,-765883.417831,-907793.212866,-884263.263257,-1085409.115006,-3747520.118656,-3202555.263347,-3209661.508758,-2938652.15047,-2923762.670012,-416789.581393,-3083111.653699,-2607522.679272
163.0,0.63671875,-309664.822777,-2722.978917,-641538.338845,990583.359073,-765888.245808,-907792.139982,-884326.026955,-1085430.57268,-3747513.681354,-3202569.747277,-3209672.774037,-2938643.5674,-2923867.812618,-416552.474088,-3083119.700327,-2607528.580133
164.0,0.640625,-309594.01245,-2778.232429,-641496.496379,990802.227354,-765881.808505,-907788.384889,-884172.604581,-1085438.619308,-3747502.952516,-3202555.263347,-3209657.217223,-2938631.229237,-2923572.769591,-416362.573667,-3083115.945234,-2607524.288598
165.0,0.64453125,-309610.642148,-3109.217061,-641488.449751,990635.930376,-765870.006784,-907786.239122,-884126.470581,-1085431.645564,-3747490.614353,-3202515.566649,-3209619.666293,-2938612.990214,-2923464.944776,-416489.173947,-3083086.977373,-2607499.612272
166.0,0.6484375,-309651.41173,-3137.112038,-641549.067682,990551.709002,-765887.709366,-907807.696796,-884300.814188,-1085450.957471,-3747503.488958,-3202518.248858,-3209623.957828,-2938623.182609,-2923743.358105,-416651.179391,-3083082.685838,-2607502.830923
167.0,0.65234375,-309640.682893,-3031.969432,-641586.618613,990698.694074,-765816.899039,-907727.766958,-884345.338863,-1085380.683587,-3747409.611632,-3202439.391904,-3209546.710199,-2938528.768841,-2923861.375315,-416462.351854,-3082999.537349,-2607418.60955
168.0,0.65625,-309685.207568,-2955.258245,-640705.244625,990735.708563,-759540.529196,-901504.50486,-879161.164661,-1079151.520628,-3741138.069765,-3196102.940572,-3203218.305495,-2932186.95309,-2919262.45919,-416174.819013,-3076732.823459,-2601148.140567
169.0,0.66015625,-309755.481452,-3022.313478,-640813.06944,990538.834398,-761831.67241,-903852.510912,-880532.846514,-1081424.96126,-3743472.128328,-3198361.360831,-3205560.947127,-2934546.760863,-2920316.031017,-416152.288455,-3079055.080301,-2603426.945618
170.0,0.6640625,-309754.408569,-3061.473735,-641411.202122,990451.394373,-765941.353553,-907923.031798,-883846.447926,-1085504.601658,-3747565.716215,-3202487.671672,-3209675.992689,-2938671.462377,-2923260.560424,-416552.474088,-3083114.87235,-2607517.851295
171.0,0.66796875,-309714.175429,-2741.21794,-641463.236983,990576.385328,-765944.572204,-907897.282588,-883968.756672,-1085520.158472,-3747537.821238,-3202500.546277,-3209657.217223,-2938636.593656,-2923442.950659,-416452.695901,-3083085.368047,-2607521.606388
172.0,0.671875,-309624.053195,-2608.180357,-641442.852192,990623.592213,-765955.837483,-907890.845286,-883870.58781,-1085545.907682,-3747526.555959,-3202512.88444,-3209650.779921,-2938621.573284,-2923239.639192,-416190.912269,-3083081.076512,-2607532.871667
173.0,0.67578125,-309602.59552,-2910.197128,-641410.66568,990411.161233,-765956.910367,-907889.772402,-883762.226553,-1085551.2721,-3747519.582214,-3202490.353881,-3209622.348502,-2938606.552912,-2922996.094584,-416212.906386,-3083061.228163,-2607525.361481
174.0,0.6796875,-309655.166823,-3082.394967,-641457.336123,990237.354068,-765935.989134,-907873.679146,-883907.602299,-1085534.105961,-3747494.369447,-3202451.193625,-3209577.823827,-2938576.512167,-2923192.968749,-416415.14497,-3083015.094163,-2607491.029202
175.0,0.68359375,-309649.802405,-2806.663848,-641523.318472,990324.794093,-765953.691715,-907884.944425,-884105.012906,-1085557.709403,-3747494.905888,-3202468.896206,-3209591.234874,-2938578.657935,-2923494.98552,-416362.037225,-3083018.312814,-2607499.612272
176.0,0.6875,-309580.064962,-2594.232868,-641523.318472,990417.062094,-765977.831599,-907896.746146,-884073.362836,-1085591.50524,-3747501.343191,-3202492.499649,-3209607.32813,-2938584.558795,-2923400.571752,-416081.478129,-3083041.379814,-2607519.997063
177.0,0.69140625,-309554.315752,-2850.652081,-641483.085332,990156.351347,-765981.586693,-907902.110565,-883947.298997,-1085600.08831,-3747498.12454,-3202472.114858,-3209585.334013,-2938577.048609,-2923125.377074,-416041.244989,-3083034.40607,-2607513.55976
178.0,0.6953125,-309603.668404,-3086.15006,-641517.417612,990013.121368,-765960.66546,-907895.136821,-884052.978045,-1085587.213705,-3747481.494842,-3202430.272392,-3209547.783082,-2938551.835841,-2923253.58668,-416246.165782,-3082991.490721,-2607480.836806
179.0,0.69921875,-309607.959939,-2876.40129,-641585.545729,990306.018627,-765969.24853,-907901.037681,-884268.091234,-1085604.916287,-3747479.349074,-3202437.782578,-3209553.147501,-2938550.226516,-2923578.13401,-416261.186154,-3082987.199186,-2607479.763923
180.0,0.703125,-309551.633543,-2702.057684,-641596.811008,990443.884187,-765993.924855,-907916.058054,-884270.773443,-1085636.566357,-3747489.54147,-3202466.213997,-3209577.287385,-2938557.736702,-2923552.3848,-415858.854754,-3083010.266186,-2607502.294481
181.0,0.70703125,-309531.785194,-2962.768431,-641545.849031,990301.727092,-766005.190135,-907927.323333,-884121.106162,-1085647.831636,-3747497.588098,-3202459.776695,-3209560.121245,-2938551.835841,-2923237.493424,-415599.753332,-3082981.298325,-2607500.148714
182.0,0.7109375,-309580.064962,-3037.333851,-641561.405845,990075.885066,-766019.137623,-907950.390333,-884174.750349,-1085660.169799,-3747508.853377,-3202446.365648,-3209548.855966,-2938558.273144,-2923275.044355,-416153.361339,-3082950.721139,-2607495.857179
183.0,0.71484375,-309599.913311,-2897.322523,-641627.924636,990073.739299,-765998.752832,-907933.760635,-884384.499119,-1085645.685869,-3747484.177051,-3202419.007113,-3209524.716082,-2938528.768841,-2923602.810335,-416296.591317,-3082914.779534,-2607464.74355
184.0,0.71875,-309550.560659,-2568.483659,-641653.673846,990222.333696,-765999.289274,-907923.031798,-884432.242445,-1085656.951148,-3747468.620237,-3202427.053741,-3209524.716082,-2938514.28491,-2923652.162987,-416031.589035,-3082914.779534,-2607462.061341
185.0,0.72265625,-309510.327519,-2690.255963,-641607.539845,990126.847044,-765992.31553,-907912.839402,-884280.429397,-1085653.196055,-3747450.381213,-3202398.622322,-3209494.675338,-2938492.290794,-2923343.172472,-415882.994638,-3082898.149836,-2607442.212992
186.0,0.7265625,-309582.747171,-2959.013338,-641677.277288,989836.095552,-766008.408786,-907946.098798,-884474.084911,-1085674.65373,-3747461.110051,-3202375.555322,-3209480.191407,-2938492.827236,-2923601.20101,-416172.136804,-3082876.155719,-2607431.484155
187.0,0.73046875,-309541.441147,-2604.425264,-641715.364661,989883.838878,-766001.971483,-907932.687751,-884554.551191,-1085684.309683,-3747442.871027,-3202377.701089,-3209480.191407,-2938476.73398,-2923728.874174,-415944.149011,-3082871.864184,-2607425.046852
188.0,0.734375,-309489.942728,-2639.830427,-641676.204404,990000.246763,-766032.54867,-907961.11917,-884407.029677,-1085726.688591,-3747461.646493,-3202397.549438,-3209497.357547,-2938494.436561,-2923434.367589,-415745.129078,-3082900.295603,-2607452.405387
189.0,0.73828125,-309526.420775,-2972.424385,-641665.475567,989922.462693,-766032.012228,-907969.165798,-884353.385491,-1085726.688591,-3747457.8914,-3202366.43581,-3209471.608337,-2938484.780608,-2923297.574913,-415862.609847,-3082878.301487,-2607436.848573
190.0,0.7421875,-309570.409008,-3019.631269,-641729.848591,989826.97604,-766033.085112,-907976.675984,-884527.729097,-1085733.662335,-3747457.354958,-3202353.561205,-3209461.415942,-2938481.561957,-2923564.722963,-416034.271244,-3082860.598905,-2607424.51041
191.0,0.74609375,-309540.904706,-2918.243756,-641779.201243,989969.133135,-766023.9656,-907958.973403,-884648.428517,-1085726.688591,-3747427.314213,-3202341.223042,-3209444.249802,-2938450.98477,-2923756.232709,-415861.000521,-3082840.214114,-2607404.662061
192.0,0.75,-309501.744449,-2785.206173,-641537.265961,989984.153507,-764352.412743,-906292.248522,-883197.889709,-1084065.328129,-3745738.595216,-3200640.702324,-3207742.6562,-2936742.417424,-2922380.795763,-415622.283891,-3081162.223954,-2605723.989692
193.0,0.75390625,-309651.41173,-2893.56743,-640596.883368,989784.060691,-758240.194111,-900278.198752,-878009.960414,-1077999.243498,-3739670.901259,-3194446.408087,-3201605.761243,-2930608.204676,-2917780.806754,-415577.222774,-3075084.337602,-2599618.744805
194.0,0.7578125,-309681.988917,-2950.96671,-641464.309867,989717.541899,-765076.609263,-907105.494393,-883318.589129,-1084784.696673,-3746523.946109,-3201298.380053,-3208508.695186,-2937528.841201,-2922436.049275,-415861.536963,-3081914.315452,-2606429.410747
195.0,0.76171875,-309629.417614,-2624.273613,-641661.720474,989868.282064,-766089.411508,-908079.136381,-884227.321652,-1085801.790452,-3747500.806749,-3202330.494205,-3209505.404175,-2938508.920492,-2923299.720681,-415835.787754,-3082887.95744,-2607439.530783
196.0,0.765625,-309538.222496,-2475.679216,-641644.554334,989923.535576,-766101.213229,-908064.116009,-884134.517209,-1085827.539662,-3747482.567725,-3202344.978135,-3209492.52957,-2938487.462817,-2923086.216818,-415571.321913,-3082877.228603,-2607456.160481
197.0,0.76953125,-309501.208007,-2773.940894,-641609.685613,989716.469016,-766089.94795,-908049.095636,-884019.182207,-1085825.393894,-3747461.646493,-3202314.400949,-3209449.077779,-2938460.104282,-2922817.459442,-415582.050751,-3082843.432765,-2607438.457899
198.0,0.7734375,-309545.196241,-2964.914199,-641653.673846,989536.76099,-766096.921694,-908059.824474,-884157.584209,-1085833.976964,-3747463.255818,-3202298.844135,-3209432.984523,-2938454.739863,-2922984.292863,-415789.117311,-3082820.365765,-2607428.801945
199.0,0.77734375,-309540.904706,-2709.56787,-641719.656196,989614.545061,-766098.53102,-908054.460055,-884365.723654,-1085839.877825,-3747449.30833,-3202299.380577,-3209424.937895,-2938433.81863,-2923292.210495,-415756.930799,-3082804.272509,-2607419.682434
200.0,0.78125,-309475.458798,-2481.043635,-641721.801963,989714.323248,-766104.968322,-908046.949869,-884344.802421,-1085855.971081,-3747436.433725,-3202306.354321,-3209424.937895,-2938422.016909,-2923212.280656,-415455.45047,-3082807.49116,-2607423.437527
201.0,0.78515625,-309457.756216,-2728.879777,-641678.886614,989495.454966,-766103.895438,-908045.876985,-884213.910605,-1085857.580406,-3747431.069306,-3202285.433088,-3209397.042918,-2938408.069421,-2922918.310513,-415194.203281,-3082779.596183,-2607412.708689
202.0,0.7890625,-309508.718194,-2981.007455,-641710.536684,989267.467173,-766084.583531,-908043.731218,-884306.715048,-1085845.242243,-3747420.340469,-3202250.027925,-3209361.637755,-2938386.075304,-2923026.135329,-415612.091495,-3082722.733345,-2607381.595061
203.0,0.79296875,-309519.447031,-2790.570592,-641780.274127,989533.542339,-766080.828438,-908038.366799,-884517.00026,-1085850.606662,-3747411.220957,-3202247.882157,-3209355.200452,-2938373.737141,-2923353.364867,-415780.534241,-3082701.812113,-2607368.720456
204.0,0.796875,-309457.756216,-2493.381797,-641794.758057,989685.355387,-766093.166601,-908037.830357,-884530.411307,-1085873.673662,-3747410.684515,-3202264.511855,-3209366.465731,-2938371.054932,-2923345.318239,-415503.193796,-3082714.686717,-2607377.839968
205.0,0.80078125,-309426.106146,-2680.063567,-641747.551173,989548.026269,-766102.822554,-908050.704962,-884376.988933,-1085887.621151,-3747410.148073,-3202252.710134,-3209353.054685,-2938368.372723,-2923033.645515,-415398.05119,-3082716.832485,-2607379.985735
206.0,0.8046875,-309487.796961,-2978.325245,-641763.644429,989316.283383,-766123.743787,-908080.745707,-884415.612747,-1085908.005942,-3747429.459981,-3202242.517739,-3209350.372475,-2938382.856653,-2923052.957422,-415583.123634,-3082713.613834,-2607383.204387
207.0,0.80859375,-309515.155496,-2921.998849,-641833.381871,989301.799453,-766108.723415,-908065.725334,-884621.606424,-1085896.204221,-3747405.320097,-3202217.841413,-3209327.305475,-2938358.716769,-2923370.531007,-415677.537403,-3082678.20867,-2607353.700084
208.0,0.8125,-309470.630821,-2876.40129,-641858.058197,989404.259849,-766125.889555,-908073.771962,-884673.641285,-1085917.661895,-3747401.028562,-3202234.471111,-3209339.107196,-2938353.35235,-2923429.539612,-415421.654632,-3082688.937508,-2607362.819596
209.0,0.81640625,-309435.225658,-2700.9848,-641808.169104,989279.805336,-766148.956555,-908096.838963,-884520.755353,-1085947.70264,-3747409.611632,-3202234.471111,-3209338.570754,-2938357.107443,-2923112.502469,-415262.86784,-3082703.95788,-2607376.230642
210.0,0.8203125,-309476.531682,-2882.302151,-641811.387755,989291.070615,-766131.253973,-908089.328777,-884513.245167,-1085935.900919,-3747394.591259,-3202192.628645,-3209298.874056,-2938334.040443,-2923047.593003,-415415.753772,-3082668.552717,-2607344.580572
211.0,0.82421875,-309512.473287,-2857.625825,-641875.224337,989250.301033,-766131.253973,-908092.547428,-884705.827797,-1085938.046686,-3747391.90905,-3202181.899808,-3209290.290986,-2938328.676025,-2923351.2191,-415563.275285,-3082647.631484,-2607331.169526
212.0,0.828125,-309472.776589,-2502.501309,-641916.530361,989402.114082,-766145.201462,-908097.911846,-884795.413589,-1085960.577245,-3747389.763283,-3202198.529506,-3209305.8478,-2938328.139583,-2923483.183799,-415349.23498,-3082658.896763,-2607341.361921
213.0,0.83203125,-309408.403565,-2519.667449,-641880.052314,989365.636035,-766160.758276,-908109.177126,-884656.475145,-1085983.107803,-3747390.836166,-3202198.529506,-3209305.8478,-2938330.821792,-2923201.015377,-415141.631978,-3082670.698484,-2607351.554316
214.0,0.8359375,-309447.027379,-2854.943616,-641865.568383,989125.310078,-766164.513369,-908124.197498,-884594.247889,-1085989.545106,-3747392.981934,-3202173.85318,-3209287.072335,-2938327.603141,-2923048.665887,-415246.774584,-3082656.750996,-2607344.580572
215.0,0.83984375,-309499.598682,-2916.63443,-641925.649872,989012.120844,-766154.320974,-908119.905963,-884762.690635,-1085980.425594,-3747377.961561,-3202148.10397,-3209260.250242,-2938306.145466,-2923305.085099,-415429.70126,-3082623.4916,-2607316.149153
216.0,0.84375,-309474.922356,-2581.894706,-641977.148292,989144.621986,-766150.029439,-908111.322893,-884888.754474,-1085986.862896,-3747364.014073,-3202148.640412,-3209259.177358,-2938290.05221,-2923502.495706,-415195.276164,-3082614.372088,-2607309.175409
217.0,0.84765625,-309401.966262,-2510.011495,-641950.326198,989159.105916,-766182.752393,-908135.462777,-884773.419472,-1086027.096036,-3747390.836166,-3202180.826924,-3209281.171475,-2938307.754792,-2923248.222261,-414687.265716,-3082620.809391,-2607337.606828
218.0,0.8515625,-309413.767983,-2835.631709,-641924.576989,988933.26389,-766161.83116,-908123.124614,-884661.839564,-1086007.247687,-3747372.060701,-3202135.229365,-3209235.037474,-2938280.932698,-2923018.625142,-415093.888652,-3082558.582134,-2607307.029642
219.0,0.85546875,-309547.87845,-3045.380479,-641281.38319,988769.649121,-760699.780071,-902721.155014,-880414.829304,-1080588.111948,-3741926.63931,-3196615.242555,-3203728.46171,-2932772.211167,-2919468.989309,-415462.960656,-3077090.630184,-2601846.587878
220.0,0.859375,-309613.324358,-2879.0835,-641233.103422,988949.893588,-761273.236427,-903350.401324,-880675.540051,-1081165.859838,-3742529.599968,-3197168.314119,-3204362.535997,-2933391.265081,-2919789.245104,-415355.672283,-3077716.657843,-2602415.216257
221.0,0.86328125,-309489.942728,-2478.897867,-641846.792918,989180.027149,-766210.110928,-908231.485871,-884408.102561,-1086068.938502,-3747441.261702,-3202141.130226,-3209320.331731,-2938349.060815,-2922894.707071,-415113.200559,-3082632.07467,-2607338.679712
222.0,0.8671875,-309437.371425,-2749.264568,-641801.195359,988984.762309,-766198.309207,-908203.590894,-884236.977605,-1086070.011386,-3747411.220957,-3202113.771691,-3209264.005335,-2938306.145466,-2922557.821579,-415119.637861,-3082584.867786,-2607325.805107
223.0,0.87109375,-309475.99524,-2963.841315,-641841.964941,988792.179679,-766205.819393,-908207.345987,-884342.656653,-1086081.276665,-3747405.856539,-3202101.433528,-3209237.719683,-2938293.807303,-2922682.276092,-415334.214608,-3082555.363483,-2607322.050014
224.0,0.875,-309474.385914,-2731.561986,-641911.165942,988854.943377,-766207.428718,-908203.590894,-884547.577446,-1086092.005502,-3747392.981934,-3202105.188621,-3209232.355265,-2938276.641163,-2922975.709793,-415323.485771,-3082536.051576,-2607317.758479
225.0,0.87890625,-309411.085774,-2489.626704,-641912.775268,988955.258006,-766230.495719,-908210.564638,-884533.093516,-1086123.655572,-3747398.346352,-3202132.010714,-3209248.448521,-2938277.714047,-2922896.316397,-415042.926674,-3082553.217715,-2607339.216154
226.0,0.8828125,-309381.581471,-2731.561986,-641870.932802,988785.205935,-766233.177928,-908210.028197,-884394.155072,-1086129.019991,-3747390.299724,-3202110.553039,-3209224.308637,-2938265.912326,-2922600.200486,-414981.23586,-3082540.343111,-2607332.778851
227.0,0.88671875,-309444.34517,-3003.538013,-641902.04643,988567.410537,-766247.661859,-908230.412988,-884475.694236,-1086143.503921,-3747398.882794,-3202094.996225,-3209211.970474,-2938272.88607,-2922677.984557,-415180.792234,-3082529.614273,-2607329.5602
228.0,0.890625,-309464.729961,-2838.313918,-641968.565222,988512.693466,-766235.860137,-908218.611266,-884689.734541,-1086138.139503,-3747377.42512,-3202077.293644,-3209193.195008,-2938248.209744,-2923003.068328,-415233.899979,-3082496.891319,-2607303.274548
229.0,0.89453125,-309406.794239,-2538.442914,-641984.658478,988734.243957,-766231.568603,-908206.809545,-884713.337983,-1086149.404782,-3747361.868305,-3202084.267388,-3209192.122125,-2938231.043605,-2923014.870049,-414963.533278,-3082497.427761,-2607301.665223
230.0,0.8984375,-309364.415331,-2716.541614,-641939.597361,988747.118562,-766242.833882,-908218.074825,-884559.915609,-1086168.716689,-3747363.477631,-3202076.22076,-3209182.466171,-2938228.897837,-2922696.22358,-414846.052509,-3082503.328622,-2607307.566083
231.0,0.90234375,-309426.106146,-3031.43299,-641953.008408,988512.693466,-766235.860137,-908219.147708,-884585.664819,-1086159.597177,-3747351.139468,-3202037.060504,-3209147.59745,-2938210.658814,-2922689.249836,-415025.760534,-3082466.850575,-2607280.207548
232.0,0.90625,-309460.974867,-2979.398129,-642017.381432,988481.579838,-766255.708487,-908242.75115,-884788.976287,-1086182.664178,-3747365.086957,-3202045.643573,-3209159.935613,-2938219.241884,-2922997.167468,-415137.876885,-3082466.850575,-2607285.035525
233.0,0.91015625,-309428.788355,-2900.541174,-642043.667083,988625.346258,-766266.973766,-908244.896918,-884854.958636,-1086196.075224,-3747354.358119,-3202055.835969,-3209166.909357,-2938211.731698,-2923078.17019,-414897.550928,-3082471.14211,-2607288.790618
234.0,0.9140625,-309373.534843,-2781.987522,-641993.241548,988544.879978,-766253.026277,-908228.803662,-884698.317611,-1086186.955713,-3747326.999584,-3202022.576573,-3209132.040636,-2938182.227395,-2922773.471209,-414729.644624,-3082450.757319,-2607265.187176
235.0,0.91796875,-309422.887495,-2988.517641,-641990.559338,988297.043836,-766276.093277,-908260.453732,-884669.886192,-1086210.559155,-3747347.920817,-3202016.675713,-3209128.285543,-2938196.174883,-2922678.520999,-414871.801719,-3082453.439528,-2607271.624478
236.0,0.921875,-309470.630821,-2990.126966,-642058.687455,988104.997647,-766297.550952,-908286.739384,-884859.786613,-1086239.527016,-3747365.623398,-3202023.649457,-3209139.550822,-2938210.658814,-2922969.808933,-415028.442744,-3082455.048854,-2607281.280432
237.0,0.92578125,-309435.225658,-2645.731288,-642106.430782,988456.36707,-766307.743348,-908293.176686,-884966.002103,-1086265.812667,-3747365.623398,-3202041.352039,-3209157.253403,-2938210.658814,-2923132.350818,-414817.62109,-3082464.704807,-2607293.082153
238.0,0.9296875,-309362.806006,-2646.26773,-642073.171386,988572.238513,-766300.233161,-908279.765639,-884831.891636,-1086265.812667,-3747352.748794,-3202032.768969,-3209136.868612,-2938189.737581,-2922867.348536,-414363.254829,-3082444.856458,-2607281.816874
239.0,0.93359375,-309385.873006,-2983.153222,-642060.296781,988330.839673,-766292.186533,-908281.374965,-884761.617751,-1086257.766039,-3747346.311491,-3202001.65534,-3209100.927007,-2938173.644325,-2922711.780395,-414595.534157,-3082392.285155,-2607260.895641
240.0,0.9375,-309445.418053,-3064.155944,-642120.37827,988205.848718,-766289.504324,-908287.812267,-884926.305404,-1086259.375365,-3747344.702166,-3201982.343433,-3209086.443077,-2938168.279906,-2922980.53777,-415034.880046,-3082364.390178,-2607246.411711
241.0,0.94140625,-309425.033262,-2739.608614,-642175.095341,988331.376115,-766297.01451,-908289.421593,-885067.926057,-1086276.005063,-3747341.483514,-3201994.145154,-3209096.635472,-2938163.988371,-2923213.35354,-414898.623812,-3082365.999504,-2607248.021036
242.0,0.9453125,-309353.150052,-2645.194846,-642151.491898,988358.73465,-766289.504324,-908274.937662,-884961.174126,-1086278.15083,-3747323.780933,-3201985.025643,-3209078.932891,-2938141.457813,-2923007.896305,-414645.959693,-3082357.952876,-2607238.901524
243.0,0.94921875,-309356.368703,-2960.622664,-642105.89434,988140.939252,-766138.76416,-908131.707684,-884705.827797,-1086131.7022,-3747169.285675,-3201802.635408,-3208902.443517,-2937978.915927,-2922647.943812,-414684.047065,-3082192.728781,-2607075.823197
244.0,0.953125,-309520.519915,-3166.079899,-641185.360096,988005.755902,-759434.850149,-901502.895534,-879382.17871,-1079474.458632,-3740483.610688,-3195023.083094,-3202150.786179,-2931227.25859,-2918153.097409,-414891.650068,-3075488.81477,-2600372.98207
245.0,0.95703125,-309562.36238,-2867.281779,-641554.968542,988141.475694,-762735.576956,-904835.808854,-881852.493507,-1082753.727764,-3743810.086705,-3198320.054808,-3205527.687732,-2934597.186398,-2920407.762576,-414804.746485,-3078834.602694,-2603658.688505
246.0,0.9609375,-309437.907867,-2628.028706,-642065.6612,988331.912557,-766327.055255,-908373.642966,-884572.253772,-1086332.331459,-3747371.524259,-3201944.256061,-3209127.212659,-2938189.201139,-2922653.844673,-414552.618808,-3082405.15976,-2607247.484594
247.0,0.96484375,-309385.336564,-2912.879337,-642021.672967,988139.329927,-766337.784092,-908367.205664,-884406.493235,-1086354.862017,-3747362.404747,-3201938.3552,-3209094.489705,-2938167.743464,-2922309.448994,-414544.035738,-3082379.946992,-2607258.213432
248.0,0.96875,-309424.496821,-3140.867131,-642060.296781,987938.700669,-766337.24765,-908363.987012,-884511.635841,-1086357.544226,-3747350.066584,-3201917.433967,-3209062.303193,-2938147.358673,-2922423.17467,-414757.539601,-3082340.786736,-2607244.802385
249.0,0.97265625,-309427.17903,-2951.503152,-642129.497782,987995.027065,-766305.061138,-908323.21743,-884718.702402,-1086329.649249,-3747301.250374,-3201884.174572,-3209018.851402,-2938093.714487,-2922729.482976,-414758.612485,-3082284.46034,-2607202.423477
250.0,0.9765625,-309379.972146,-2923.608175,-642132.716433,988108.75274,-766316.326417,-908322.144547,-884707.973565,-1086345.206063,-3747288.912212,-3201894.903409,-3209019.387844,-2938079.766998,-2922668.865045,-414480.199156,-3082287.142549,-2607207.251454
251.0,0.98046875,-309342.957657,-2921.998849,-642085.509549,987949.429506,-766327.055255,-908330.727617,-884564.207144,-1086358.61711,-3747285.157118,-3201878.810153,-3209000.612378,-2938072.793254,-2922365.238948,-414405.097294,-3082281.241689,-2607205.105687
252.0,0.984375,-309398.211169,-3097.41534,-642113.404526,987728.415457,-766353.340906,-908360.231919,-884633.408145,-1086380.074785,-3747305.005468,-3201876.664385,-3208999.003053,-2938085.131417,-2922430.684856,-414600.898576,-3082280.168805,-2607209.933664
253.0,0.98828125,-309433.616332,-2946.675175,-642186.36062,987653.850037,-766367.288395,-908379.007385,-884850.130659,-1086403.141785,-3747314.124979,-3201886.320339,-3209009.73189,-2938092.105161,-2922760.060163,-414665.2716,-3082276.950154,-2607215.298082
254.0,0.9921875,-309377.826378,-2632.320241,-642210.500504,987911.878575,-766359.778209,-908364.523454,-884888.754474,-1086411.188413,-3747291.594421,-3201886.320339,-3209005.440355,-2938073.866138,-2922796.001768,-414395.977783,-3082273.731503,-2607209.933664
255.0,0.99609375,-309322.036424,-2779.841754,-642165.439387,987944.601529,-766348.51293,-908351.648849,-884735.868542,-1086406.896878,-3747271.20963,-3201858.425362,-3208975.936052,-2938049.189812,-2922493.448555,-414264.013083,-3082259.247572,-2607191.69464
0.0,1.0,0.0,0.0,0.0,0.0,0.0,0.0,0.0,0.0,0.0,0.0,0.0,0.0,0.0,0.0,0.0,0.0
1.0,1.00390625,-336227.814702,-5049.527293,-1379271.433267,-18843.057018,-1311117.030515,-1622561.767407,-1900542.187755,-2408931.900136,-3547874.158367,-2540830.080608,-2546902.602542,-2458404.178429,-2464733.656017,-47549.134201,-2541488.294779,-2523618.343308
2.0,1.0078125,-336197.237515,-5318.284669,-1379263.92308,-18922.450414,-1311107.374562,-1622556.402988,-1900424.706987,-2408924.926391,-3547868.793949,-2540809.159375,-2546877.389774,-2458392.91315,-2464736.874668,-47305.589593,-2541461.472686,-2523604.932261
3.0,1.01171875,-336265.365632,-5510.330857,-1379329.368988,-19046.368485,-1311115.957632,-1622574.10557,-1900535.214011,-2408935.655229,-3547881.132112,-2540807.013608,-2546875.244007,-2458401.49622,-2464735.265343,-47810.38139,-2541443.233662,-2523610.833122
4.0,1.015625,-336287.896191,-5286.634599,-1379413.053919,-18979.849694,-1311124.540701,-1622578.397105,-1900719.213571,-2408946.384066,-3547882.741437,-2540818.815329,-2546886.509286,-2458405.251313,-2464750.285715,-47914.987554,-2541446.988755,-2523614.588215
5.0,1.01953125,-336230.496911,-5222.261575,-1379424.855641,-18841.984134,-1311118.103399,-1622566.058942,-1900688.099943,-2408942.628973,-3547864.502414,-2540817.742445,-2546881.144867,-2458390.230941,-2464762.087436,-47677.343807,-2541450.207406,-2523606.005145
6.0,1.0234375,-336212.794329,-5442.739182,-1379388.914035,-18905.284274,-1311123.467818,-1622576.251337,-1900548.088616,-2408949.602717,-3547865.038856,-2540805.940724,-2546869.879588,-2458390.767382,-2464747.603506,-47612.434341,-2541456.644709,-2523606.005145
7.0,1.02734375,-336223.523167,-5480.826554,-1379050.955659,-18988.969205,-1310536.063973,-1622001.185656,-1900261.092217,-2408367.563291,-3547280.853663,-2540197.615647,-2546266.382488,-2457800.144887,-2464166.636964,-47784.095738,-2540857.975585,-2523012.70044
8.0,1.03125,-334822.33701,-5067.229875,-1370423.361113,-17622.65177,-1297830.438355,-1609413.040806,-1892075.52577,-2395760.642977,-3534714.166488,-2527466.777261,-2533596.162033,-2445111.148967,-2450763.636919,-46366.816326,-2528251.055271,-2510412.75387
9.0,1.03515625,-335691.372835,-5007.684828,-1374743.327468,-18213.810708,-1305530.524913,-1617153.360504,-1895986.18698,-2403404.939581,-3542416.398813,-2535144.869702,-2541384.225057,-2452897.602665,-2456585.6405,-46877.508983,-2536024.634364,-2518150.9278
10.0,1.0390625,-336333.493749,-5161.107202,-1378281.16158,-18850.030762,-1311169.065376,-1622725.382176,-1899336.266439,-2408998.955369,-3547971.254345,-2540785.555933,-2546982.53238,-2458513.61257,-2462678.010783,-47552.352852,-2541599.338245,-2523742.797821
11.0,1.04296875,-336371.581122,-5440.593414,-1378253.266603,-19013.645531,-1311164.2374,-1622695.877873,-1899418.342044,-2409000.564694,-3547940.677159,-2540774.290654,-2546933.179728,-2458476.061639,-2463289.554511,-47756.200761,-2541547.303384,-2523713.293518
12.0,1.046875,-336403.231192,-5356.908483,-1378341.779511,-19016.327741,-1311174.966237,-1622691.586338,-1899694.609606,-2409015.048625,-3547929.948322,-2540789.311026,-2546923.523775,-2458463.187035,-2463698.323214,-47924.107066,-2541524.236384,-2523698.273146
13.0,1.05078125,-336349.050563,-5055.964596,-1378424.928001,-18881.680832,-1311177.648446,-1622676.565966,-1899833.548049,-2409027.386788,-3547911.172856,-2540809.695817,-2546926.742426,-2458449.775988,-2463975.127217,-47735.279529,-2541524.236384,-2523688.08075
14.0,1.0546875,-336263.756307,-5150.378364,-1378448.531443,-18848.421436,-1311161.55519,-1622651.88964,-1899765.956374,-2409018.803718,-3547884.887205,-2540790.38391,-2546898.311007,-2458425.099662,-2464147.325056,-47575.956294,-2541510.825337,-2523660.722215
15.0,1.05859375,-336289.505516,-5458.832438,-1378528.461281,-19008.281113,-1311150.826353,-1622640.624361,-1899824.964979,-2409010.75709,-3547875.767693,-2540766.244026,-2546865.588053,-2458409.542848,-2464288.409267,-47733.133761,-2541488.294779,-2523637.655215
16.0,1.0625,-336346.904796,-5450.78581,-1378671.691259,-19050.123578,-1311159.409423,-1622648.670989,-1900078.16554,-2409021.485927,-3547877.377019,-2540772.144887,-2546864.515169,-2458411.688615,-2464382.823036,-47941.809647,-2541479.711709,-2523633.900122
17.0,1.06640625,-336322.22847,-5142.868178,-1378791.317796,-18924.05974,-1311177.648446,-1622658.326943,-1900237.488775,-2409047.235137,-3547882.204995,-2540802.185631,-2546890.264379,-2458420.271685,-2464474.554595,-47804.480529,-2541500.0965,-2523647.311169
18.0,1.0703125,-336273.41226,-5164.325853,-1378826.722959,-18851.103646,-1311167.992493,-1622641.160803,-1900163.459797,-2409041.870718,-3547862.356646,-2540785.019491,-2546871.488913,-2458401.49622,-2464516.933503,-47611.361457,-2541495.804965,-2523631.217913
19.0,1.07421875,-336317.400493,-5477.607903,-1378887.34089,-19003.453136,-1311169.065376,-1622647.598105,-1900157.022495,-2409042.943602,-3547862.893088,-2540766.780468,-2546851.104123,-2458398.81401,-2464542.146271,-47714.894738,-2541487.758337,-2523623.707726
20.0,1.078125,-336389.283703,-5550.027555,-1379011.795403,-19078.018555,-1311186.767958,-1622667.446454,-1900367.307707,-2409060.646184,-3547877.377019,-2540775.89998,-2546857.541425,-2458413.297941,-2464579.160759,-47950.392717,-2541492.049872,-2523633.900122
21.0,1.08203125,-336383.919285,-5253.911645,-1379124.984637,-18987.35988,-1311200.179005,-1622674.956641,-1900532.531802,-2409082.103858,-3547882.204995,-2540802.722073,-2546879.535541,-2458421.344569,-2464639.77869,-47857.051832,-2541507.070244,-2523645.165401
22.0,1.0859375,-336306.671656,-5187.392853,-1379152.879614,-18895.091879,-1311188.377284,-1622661.009152,-1900458.502824,-2409079.421649,-3547870.403274,-2540800.039864,-2546869.879588,-2458405.787755,-2464654.799063,-47352.796477,-2541499.023616,-2523633.900122
23.0,1.08984375,-336308.280982,-5486.190973,-1379181.311033,-18992.187857,-1311167.456051,-1622645.452338,-1900391.984033,-2409060.109742,-3547854.310018,-2540764.6347,-2546831.792215,-2458383.793638,-2464660.163481,-47452.038223,-2541448.598081,-2523608.687354
24.0,1.09375,-336400.548983,-5625.665858,-1379275.18836,-19088.747393,-1311182.476423,-1622666.910013,-1900555.598802,-2409077.812323,-3547869.330391,-2540765.171142,-2546835.547308,-2458396.131801,-2464687.522016,-47936.445229,-2541440.015011,-2523617.806866
25.0,1.09765625,-336415.569355,-5477.607903,-1379370.13857,-19001.307368,-1311200.715447,-1622680.321059,-1900736.916153,-2409099.269998,-3547877.377019,-2540790.920352,-2546857.541425,-2458409.006406,-2464712.734784,-47933.226577,-2541454.498941,-2523631.217913
26.0,1.1015625,-336356.56075,-5465.806182,-1379385.695384,-18888.118135,-1311220.563796,-1622693.195664,-1900686.490618,-2409121.264115,-3547883.814321,-2540811.841585,-2546874.171123,-2458417.053034,-2464724.000063,-47695.046389,-2541479.711709,-2523644.628959
27.0,1.10546875,-336357.633633,-5448.103601,-1379376.575872,-18976.094601,-1311194.814586,-1622669.592222,-1900571.692058,-2409092.296254,-3547852.700693,-2540766.244026,-2546825.891355,-2458382.184313,-2464700.396621,-47681.0989,-2541451.28029,-2523608.687354
28.0,1.109375,-336432.199053,-5622.447207,-1379439.339571,-19104.840649,-1311205.006981,-1622685.149036,-1900684.34485,-2409103.561533,-3547863.965972,-2540758.197398,-2546823.745587,-2458391.840266,-2464719.172087,-47923.034182,-2541450.743848,-2523612.978889
29.0,1.11328125,-336461.166914,-5412.161995,-1379520.342293,-19057.633764,-1311226.464656,-1622705.533827,-1900875.318155,-2409129.310743,-3547879.522786,-2540783.410166,-2546848.958355,-2458409.542848,-2464752.967924,-47985.261439,-2541467.373546,-2523629.608587
30.0,1.1171875,-336397.866773,-5192.757272,-1379540.190642,-18922.986856,-1311207.152749,-1622680.321059,-1900852.251154,-2409120.727673,-3547854.310018,-2540774.827096,-2546836.08375,-2458386.475848,-2464739.556878,-47749.763459,-2541461.472686,-2523614.051773
31.0,1.12109375,-336360.315843,-5410.016228,-1379510.686339,-18956.246252,-1311197.496795,-1622670.665106,-1900706.875409,-2409111.071719,-3547840.36253,-2540749.077886,-2546812.480308,-2458374.137685,-2464728.291598,-47676.807365,-2541456.108267,-2523600.640726
32.0,1.125,-336431.662611,-5663.216789,-1379550.383037,-19109.132184,-1311213.590051,-1622695.341432,-1900771.248433,-2409126.628533,-3547857.52867,-2540747.468561,-2546814.626076,-2458389.694499,-2464739.556878,-47901.040065,-2541459.86336,-2523611.906005
33.0,1.12890625,-335984.806536,-5413.771321,-1376498.565256,-18612.387015,-1306465.543087,-1617981.626747,-1897973.704097,-2404416.668942,-3543148.10552,-2535994.59362,-2542067.651995,-2453635.210232,-2459931.964866,-47537.33248,-2536728.982535,-2518889.071809
34.0,1.1328125,-334913.532128,-5010.903479,-1369824.69199,-17472.448048,-1297352.468652,-1609012.855174,-1891419.993808,-2395379.232809,-3534181.479714,-2526850.941998,-2533040.408258,-2444586.508821,-2449182.206295,-46025.102857,-2527768.25759,-2509906.352747
35.0,1.13671875,-336398.939657,-5366.027995,-1377849.862319,-18816.771366,-1310315.586366,-1621926.083794,-1898902.284968,-2408239.353685,-3547057.693846,-2539800.112224,-2546020.692113,-2457596.296978,-2461273.605975,-47444.528037,-2540697.579467,-2522830.310205
36.0,1.140625,-336538.414542,-5638.004021,-1378394.887256,-19088.747393,-1311259.18761,-1622831.597666,-1899549.23386,-2409184.027813,-3547960.525508,-2540739.958374,-2546916.013588,-2458503.956616,-2462954.814786,-47849.005204,-2541580.56278,-2523746.552914
37.0,1.14453125,-336566.30952,-5574.167439,-1378449.604326,-19089.283835,-1311256.505401,-1622805.848456,-1899816.381909,-2409185.637139,-3547930.484763,-2540740.494816,-2546885.436402,-2458470.160779,-2463475.163397,-48036.223416,-2541536.038105,-2523718.121495
38.0,1.1484375,-336514.8111,-5273.759994,-1378512.904467,-18962.683554,-1311226.464656,-1622755.959363,-1899967.122074,-2409166.325231,-3547882.204995,-2540735.130398,-2546854.859216,-2458422.417453,-2463813.121773,-47861.879809,-2541498.487174,-2523674.133262
39.0,1.15234375,-336442.92789,-5359.054251,-1378526.315513,-18941.225879,-1311206.079865,-1622721.627083,-1899901.139724,-2409150.768417,-3547845.726948,-2540710.454072,-2546815.162517,-2458386.475848,-2464017.506125,-47699.337923,-2541473.274407,-2523636.582331
40.0,1.15625,-336499.790728,-5673.945626,-1378598.198724,-19100.549114,-1311210.907842,-1622725.382176,-1899954.247469,-2409155.596394,-3547844.117623,-2540694.360816,-2546795.85061,-2458382.720754,-2464159.126778,-47851.687414,-2541461.472686,-2523624.78061
41.0,1.16015625,-336568.455287,-5689.502441,-1378739.819376,-19144.537347,-1311233.974842,-1622747.376293,-1900213.348891,-2409180.27272,-3547860.747321,-2540714.745607,-2546807.652331,-2458399.886894,-2464282.508407,-48073.774347,-2541464.691337,-2523633.900122
42.0,1.1640625,-336550.752705,-5386.949228,-1378861.59168,-19031.348113,-1311242.557912,-1622746.303409,-1900383.937405,-2409195.829534,-3547859.674437,-2540738.349049,-2546822.672704,-2458398.81401,-2464399.989176,-47952.002043,-2541475.956616,-2523638.191657
43.0,1.16796875,-336476.187286,-5392.313646,-1378899.679053,-18958.392019,-1311227.001098,-1622724.845734,-1900317.955055,-2409188.319348,-3547837.68032,-2540721.182909,-2546803.897238,-2458378.42922,-2464436.467223,-47752.445668,-2541470.592197,-2523619.416192
44.0,1.171875,-336492.816984,-5711.496557,-1378953.859681,-19105.377091,-1311215.735819,-1622717.335548,-1900301.861799,-2409178.126952,-3547824.269274,-2540690.605723,-2546771.710726,-2458363.408847,-2464472.94527,-47850.61453,-2541452.353174,-2523600.104284
45.0,1.17578125,-336572.21038,-5807.519651,-1379077.777753,-19187.989138,-1311225.391772,-1622732.35592,-1900511.074127,-2409188.319348,-3547834.461669,-2540690.069281,-2546773.320052,-2458369.309708,-2464518.006387,-48097.914231,-2541448.061639,-2523600.640726
46.0,1.1796875,-336574.892589,-5522.66902,-1379196.867847,-19088.747393,-1311209.834958,-1622712.507571,-1900688.099943,-2409181.345604,-3547810.321785,-2540684.704862,-2546763.127656,-2458348.388475,-2464556.630201,-48039.442067,-2541431.431941,-2523581.865261
47.0,1.18359375,-336509.446682,-5444.884949,-1379226.908592,-19019.546392,-1311240.412145,-1622737.720339,-1900620.508268,-2409220.50586,-3547830.170134,-2540718.5007,-2546792.095517,-2458374.137685,-2464571.650573,-47817.891576,-2541474.34729,-2523612.442447
48.0,1.1875,-336531.440798,-5746.365279,-1379249.43915,-19112.887277,-1311233.974842,-1622732.35592,-1900546.47929,-2409211.92279,-3547821.050623,-2540690.069281,-2546765.273424,-2458363.408847,-2464563.603945,-47857.051832,-2541463.618453,-2523598.494959
49.0,1.19140625,-336620.490148,-5908.370722,-1379341.707151,-19225.540069,-1311228.073982,-1622731.819478,-1900704.193199,-2409206.558371,-3547813.003995,-2540669.148048,-2546744.888633,-2458352.68001,-2464577.014992,-48111.861719,-2541440.551453,-2523584.011028
50.0,1.1953125,-336640.874939,-5662.680347,-1379440.948897,-19126.834765,-1311214.126493,-1622715.189781,-1900893.557178,-2409195.829534,-3547793.692087,-2540660.564978,-2546736.305563,-2458331.222335,-2464621.539667,-48119.908347,-2541422.312429,-2523565.772005
51.0,1.19921875,-336577.574799,-5507.648648,-1379460.797246,-19025.983694,-1311215.199377,-1622710.898246,-1900842.058759,-2409206.558371,-3547788.327669,-2540671.293816,-2546743.815749,-2458332.831661,-2464637.096481,-47886.019693,-2541442.160778,-2523570.599982
52.0,1.203125,-336549.14338,-5774.260256,-1379454.896385,-19116.64237,-1311230.756191,-1622727.527944,-1900719.213571,-2409225.333837,-3547800.665832,-2540669.148048,-2546744.352191,-2458345.706266,-2464621.003225,-47861.879809,-2541459.86336,-2523582.401703
53.0,1.20703125,-336641.411381,-5996.88363,-1379519.805851,-19255.044371,-1311248.458773,-1622752.740711,-1900822.21041,-2409239.817767,-3547819.441297,-2540669.148048,-2546745.425075,-2458360.190196,-2464622.076109,-48105.960859,-2541463.082011,-2523590.984773
54.0,1.2109375,-336687.545381,-5960.405583,-1379608.318759,-19220.712092,-1311267.234238,-1622770.979735,-1901014.79304,-2409259.129674,-3547829.097251,-2540690.069281,-2546764.736982,-2458370.382592,-2464653.189737,-48181.06272,-2541474.34729,-2523603.859377
55.0,1.21484375,-336637.119846,-5840.779047,-1379622.266248,-19084.455858,-1311279.035959,-1622776.344153,-1901001.918435,-2409274.150047,-3547831.243018,-2540709.91763,-2546777.611587,-2458373.064801,-2464695.032203,-47777.658436,-2541487.221895,-2523611.906005
56.0,1.21875,-336619.417264,-5734.563557,-1379592.225503,-19116.64237,-1311273.135099,-1622770.443293,-1900858.152015,-2409271.467837,-3547828.560809,-2540695.970141,-2546757.763238,-2458363.408847,-2464698.787296,-47468.131479,-2541457.717592,-2523601.71361
57.0,1.22265625,-336688.081823,-5973.280188,-1379635.677294,-19266.846093,-1311247.922331,-1622753.813595,-1900914.478411,-2409247.864395,-3547807.103134,-2540655.20056,-2546716.457214,-2458338.19608,-2464678.938947,-48026.03102,-2541401.927638,-2523570.599982
58.0,1.2265625,-336724.023428,-5840.779047,-1379626.557782,-19232.513813,-1311124.00426,-1622630.431966,-1901030.349854,-2409124.482766,-3547677.820644,-2540530.746046,-2546592.002701,-2458209.450031,-2464560.385294,-48221.29586,-2541267.817172,-2523441.853934
59.0,1.23046875,-335296.551621,-5274.832877,-1371564.372964,-17879.070983,-1299250.936419,-1610854.460103,-1893296.467459,-2397356.557531,-3535942.618363,-2528657.678206,-2534763.995977,-2446355.157656,-2452224.904564,-46559.398956,-2529504.183472,-2511671.246489
60.0,1.234375,-335711.757626,-5542.517369,-1373290.642892,-18203.618312,-1303229.725746,-1614918.007245,-1894597.338986,-2401307.988323,-3539976.661203,-2532590.333532,-2538825.397351,-2450432.115845,-2454073.483237,-46676.879725,-2533589.188288,-2515720.846143
61.0,1.23828125,-336808.244802,-5950.74963,-1378485.00949,-19237.878232,-1311350.382727,-1622972.145435,-1899607.169581,-2409356.762094,-3547988.420485,-2540695.970141,-2546899.383891,-2458535.070245,-2462436.611943,-48016.911509,-2541617.040827,-2523779.81231
62.0,1.2421875,-336824.874499,-5894.423234,-1378488.228141,-19241.633325,-1311320.341983,-1622910.991062,-1899852.323515,-2409335.304419,-3547922.974577,-2540672.903141,-2546836.08375,-2458466.942128,-2463118.965998,-48214.858558,-2541534.428779,-2523725.631681
63.0,1.24609375,-336768.011662,-5585.432718,-1378533.289258,-19079.091439,-1311311.222471,-1622872.903689,-1900007.891656,-2409334.767978,-3547888.642298,-2540686.314188,-2546817.844727,-2458431.536964,-2463572.259375,-48046.952253,-2541509.752454,-2523696.66382
64.0,1.25,-336690.227591,-5654.097277,-1378540.799444,-19080.164323,-1311303.175843,-1622850.909573,-1899953.174585,-2409333.158652,-3547866.111739,-2540680.949769,-2546794.777727,-2458406.324197,-2463862.474425,-47874.754414,-2541498.487174,-2523670.378169
65.0,1.25390625,-336741.72601,-5966.842886,-1378605.172468,-19245.92486,-1311314.441122,-1622858.419759,-1900005.745888,-2409343.887489,-3547869.330391,-2540671.830257,-2546777.075145,-2458406.324197,-2464062.0308,-48012.083532,-2541490.976988,-2523660.185773
66.0,1.2578125,-336804.489708,-5989.909886,-1378740.89226,-19296.886837,-1311333.216588,-1622874.513015,-1900268.065961,-2409363.199397,-3547880.059228,-2540685.777746,-2546784.585331,-2458417.589476,-2464211.698081,-48232.561139,-2541488.294779,-2523665.550192
67.0,1.26171875,-336780.349824,-5678.773603,-1378865.346773,-19176.723859,-1311310.149587,-1622842.326503,-1900450.992638,-2409346.569699,-3547844.117623,-2540678.26756,-2546765.273424,-2458383.793638,-2464334.543268,-48116.689696,-2541464.691337,-2523634.436564
68.0,1.265625,-336696.128451,-5663.216789,-1378906.116355,-19095.721137,-1311314.977564,-1622839.107852,-1900394.1298,-2409359.444303,-3547843.581181,-2540685.777746,-2546765.809866,-2458382.720754,-2464398.37985,-47907.477368,-2541481.321035,-2523636.045889
69.0,1.26953125,-336696.128451,-5968.988653,-1378961.369867,-19232.513813,-1311343.945425,-1622869.685038,-1900375.890777,-2409391.630815,-3547874.158367,-2540699.188793,-2546777.611587,-2458412.225057,-2464461.67999,-47983.652113,-2541507.070244,-2523659.11289
70.0,1.2734375,-336761.574359,-6062.329538,-1379085.824381,-19319.417396,-1311324.097076,-1622852.518899,-1900579.738686,-2409371.782466,-3547851.627809,-2540669.68449,-2546748.107284,-2458389.694499,-2464514.787735,-48222.905186,-2541470.592197,-2523630.145029
71.0,1.27734375,-336757.819266,-5772.65093,-1379206.523801,-19253.435046,-1311335.898797,-1622860.029085,-1900765.884014,-2409394.313025,-3547855.919344,-2540693.287932,-2546769.564959,-2458398.277569,-2464579.160759,-48173.016092,-2541482.93036,-2523640.873866
72.0,1.28125,-336688.081823,-5670.190533,-1379243.538289,-19113.423719,-1311342.336099,-1622861.101968,-1900711.166943,-2409408.260513,-3547856.992228,-2540702.407444,-2546774.929377,-2458398.81401,-2464590.96248,-47941.273205,-2541501.705826,-2523646.238285
73.0,1.28515625,-336700.956428,-5958.259816,-1379263.92308,-19210.519697,-1311315.514006,-1622837.498526,-1900634.455756,-2409381.43842,-3547828.024367,-2540657.346327,-2546731.477586,-2458368.773266,-2464599.009108,-47958.975787,-2541474.883732,-2523614.588215
74.0,1.2890625,-336773.37608,-6123.483911,-1379354.581756,-19324.781814,-1311300.493634,-1622828.915456,-1900787.87813,-2409365.881606,-3547813.003995,-2540627.842024,-2546701.973284,-2458349.997801,-2464604.373527,-48203.593278,-2541445.915871,-2523590.984773
75.0,1.29296875,-336785.714243,-5948.603862,-1379453.287059,-19244.315534,-1311320.878425,-1622846.081596,-1900982.606528,-2409386.802839,-3547823.732832,-2540656.273443,-2546725.576726,-2458365.018173,-2464634.414272,-48219.150093,-2541461.472686,-2523608.150912
76.0,1.296875,-336720.268335,-6003.857375,-1379477.426943,-19139.172928,-1311347.700518,-1622867.002829,-1900950.956458,-2409418.989351,-3547836.607437,-2540684.16842,-2546753.471703,-2458384.33008,-2464657.481272,-47979.360578,-2541496.341407,-2523632.290796
77.0,1.30078125,-336714.367475,-5943.239444,-1379467.77099,-19199.790859,-1311364.330216,-1622884.705411,-1900828.11127,-2409432.400397,-3547845.190507,-2540678.26756,-2546748.643726,-2458392.91315,-2464661.772807,-47935.908787,-2541510.825337,-2523638.728099
78.0,1.3046875,-336788.932894,-6091.833841,-1379536.971991,-19331.219117,-1311362.184449,-1622890.069829,-1900924.670806,-2409433.473281,-3547846.26339,-2540661.637862,-2546734.696237,-2458390.767382,-2464674.647412,-48169.260999,-2541498.487174,-2523632.827238
79.0,1.30859375,-336815.754988,-5904.079187,-1379629.776434,-19283.47579,-1311365.939542,-1622893.28848,-1901122.081414,-2409443.665677,-3547844.654065,-2540669.148048,-2546738.45133,-2458388.085173,-2464697.17797,-48255.091698,-2541495.804965,-2523633.36368
80.0,1.3125,-336749.772638,-5657.315929,-1379660.35362,-19164.385696,-1311360.575123,-1622879.877434,-1901116.716995,-2409446.884328,-3547836.607437,-2540675.58535,-2546741.669982,-2458379.502103,-2464710.052575,-47889.238344,-2541500.632942,-2523630.145029
81.0,1.31640625,-336706.320847,-5847.752791,-1379635.140852,-19176.187417,-1311368.621751,-1622890.069829,-1900970.268365,-2409457.613165,-3547851.091367,-2540680.949769,-2546740.060656,-2458385.939406,-2464707.370366,-47537.33248,-2541490.976988,-2523636.582331
82.0,1.3203125,-336769.620987,-6113.291516,-1379675.373992,-19326.927582,-1311346.627634,-1622873.976573,-1901018.011691,-2409435.082607,-3547828.560809,-2540639.643745,-2546699.827516,-2458360.726638,-2464699.323738,-48066.26416,-2541435.723476,-2523605.468703
83.0,1.32421875,-336810.927011,-5993.128537,-1379759.058924,-19323.70893,-1311349.309844,-1622879.340992,-1901215.422298,-2409440.983467,-3547828.024367,-2540643.93528,-2546703.582609,-2458363.408847,-2464720.781412,-48286.741768,-2541430.359057,-2523607.61447
84.0,1.328125,-336463.849123,-5621.374324,-1377786.562179,-18885.435925,-1308289.981877,-1619836.642723,-1899338.412206,-2406413.842012,-3544792.836284,-2537594.799709,-2543656.592805,-2455299.252903,-2461646.969515,-47781.413529,-2538398.926067,-2520569.207736
85.0,1.33203125,-335166.732689,-5470.097717,-1369680.389128,-17645.182329,-1296896.493065,-1608589.602541,-1891350.792807,-2395108.866109,-3533557.061381,-2526151.421803,-2532315.675296,-2443955.116743,-2448848.003012,-46242.898255,-2527151.885885,-2509302.319205
86.0,1.3359375,-336650.530893,-6052.137143,-1377398.714709,-19078.018555,-1309503.949821,-1621176.674506,-1898569.154569,-2407617.08112,-3546101.754439,-2538730.447141,-2544956.391449,-2456631.238059,-2460236.127405,-47785.705064,-2539745.395153,-2521886.172519
87.0,1.33984375,-336906.950105,-6039.79898,-1378620.729282,-19294.204628,-1311412.073542,-1623033.83625,-1899981.069563,-2409515.012445,-3547955.161089,-2540648.226815,-2546828.037122,-2458500.201523,-2462881.858692,-48261.529,-2541581.635664,-2523764.255496
88.0,1.34375,-336846.332174,-5729.199139,-1378640.577631,-19123.616114,-1311393.298077,-1622988.238691,-1900128.591076,-2409508.575142,-3547910.099972,-2540656.809885,-2546798.53282,-2458454.067523,-2463438.68535,-48106.4973,-2541544.084733,-2523727.777449
89.0,1.34765625,-336761.574359,-5782.306884,-1378631.994561,-19125.22544,-1311394.907402,-1622969.999667,-1900070.118912,-2409516.62177,-3547892.933833,-2540659.492094,-2546778.68447,-2458436.364941,-2463769.669982,-47928.398601,-2541536.574547,-2523709.001983
90.0,1.3515625,-336794.297313,-6095.052492,-1378686.711632,-19293.131744,-1311390.079426,-1622958.197946,-1900108.742727,-2409510.184468,-3547874.694809,-2540634.815769,-2546743.815749,-2458417.589476,-2463985.856055,-48055.535323,-2541509.752454,-2523682.17989
91.0,1.35546875,-336851.696593,-6130.994097,-1378815.994122,-19353.213233,-1311377.741263,-1622944.250458,-1900363.552614,-2409500.528514,-3547855.382902,-2540618.722513,-2546718.602981,-2458397.204685,-2464163.954754,-48282.986675,-2541480.248151,-2523655.357797
92.0,1.359375,-336827.556709,-5820.930698,-1378937.766425,-19244.315534,-1311362.184449,-1622921.183458,-1900552.380151,-2409492.481886,-3547830.706576,-2540617.649629,-2546707.337702,-2458372.528359,-2464301.283872,-48177.844069,-2541462.545569,-2523631.217913
93.0,1.36328125,-336745.481103,-5790.353512,-1378981.754658,-19153.120417,-1311387.933658,-1622937.276714,-1900495.517313,-2409525.741282,-3547848.9456,-2540647.153932,-2546731.477586,-2458392.91315,-2464380.140827,-47962.194438,-2541497.414291,-2523653.212029
94.0,1.3671875,-336761.574359,-6093.979608,-1379033.253078,-19279.184256,-1311390.615867,-1622941.568248,-1900471.913871,-2409526.277724,-3547847.336274,-2540629.45135,-2546713.775005,-2458388.621615,-2464430.566362,-48031.395439,-2541493.122756,-2523645.165401
95.0,1.37109375,-336833.994011,-6204.486633,-1379152.879614,-19374.670908,-1311404.026914,-1622956.588621,-1900667.715152,-2409539.152329,-3547856.992228,-2540632.133559,-2546714.311446,-2458396.668243,-2464492.793619,-48273.867163,-2541488.294779,-2523649.456936
96.0,1.375,-336832.921127,-6038.189654,-1379274.651918,-19286.694442,-1311412.609984,-1622960.343714,-1900865.125759,-2409555.782027,-3547855.919344,-2540653.054792,-2546727.722493,-2458398.81401,-2464561.99462,-48234.706907,-2541496.341407,-2523654.284913
97.0,1.37890625,-336761.574359,-6056.965119,-1379308.447755,-19161.167045,-1311375.595495,-1622915.819039,-1900823.283294,-2409520.376864,-3547804.420925,-2540611.748768,-2546684.807144,-2458348.388475,-2464555.557317,-48002.427578,-2541465.227779,-2523607.078029
98.0,1.3828125,-336753.527731,-6050.527817,-1379326.686779,-19264.700325,-1311379.350588,-1622924.938551,-1900737.989037,-2409524.668398,-3547806.03025,-2540596.728396,-2546672.468981,-2458348.924917,-2464565.213271,-48009.401323,-2541469.519314,-2523606.005145
99.0,1.38671875,-336824.338058,-6199.658656,-1379427.001408,-19383.79042,-1311391.688751,-1622939.958923,-1900881.219015,-2409536.47012,-3547820.514181,-2540596.191954,-2546671.932539,-2458360.726638,-2464585.598062,-48253.482372,-2541468.44643,-2523614.051773
100.0,1.390625,-336840.967755,-5967.379328,-1379538.581316,-19314.052977,-1311376.131937,-1622923.865667,-1901083.457599,-2409524.668398,-3547796.374297,-2540587.608884,-2546660.130818,-2458339.805405,-2464629.586295,-48287.27821,-2541449.134523,-2523595.276307
101.0,1.39453125,-336778.740499,-5777.478907,-1379571.30427,-19186.379813,-1311376.131937,-1622918.501248,-1901057.171948,-2409533.78791,-3547787.254785,-2540593.509745,-2546664.422353,-2458334.977428,-2464644.070225,-48045.879369,-2541460.936244,-2523593.13054
102.0,1.3984375,-336760.501475,-6014.586212,-1379560.575433,-19250.752837,-1311374.522611,-1622919.574132,-1900925.207248,-2409535.397236,-3547783.499692,-2540575.807163,-2546648.865539,-2458331.758777,-2464634.950714,-47995.990276,-2541463.618453,-2523590.984773
103.0,1.40234375,-336830.77536,-6248.474866,-1379624.412015,-19392.909931,-1311393.298077,-1622943.714016,-1901015.329482,-2409552.563376,-3547808.176018,-2540579.025814,-2546654.766399,-2458351.607126,-2464642.4609,-48226.660279,-2541471.665081,-2523604.932261
104.0,1.40625,-336863.498314,-6077.886352,-1379713.461365,-19379.498885,-1311412.073542,-1622959.807272,-1901220.786717,-2409576.70326,-3547822.659948,-2540600.483489,-2546673.541865,-2458366.091057,-2464671.965202,-48324.82914,-2541484.003244,-2523619.416192
105.0,1.41015625,-336805.562592,-5826.831559,-1379748.330086,-19225.540069,-1311389.542984,-1622933.52162,-1901228.833345,-2409566.510864,-3547796.910739,-2540594.582629,-2546662.276585,-2458340.878289,-2464696.641528,-47973.996159,-2541473.810848,-2523601.177168
106.0,1.4140625,-336768.548103,-6011.904003,-1379724.726644,-19232.513813,-1311404.026914,-1622950.151318,-1901080.238948,-2409585.286329,-3547814.076878,-2540602.629257,-2546663.885911,-2458351.607126,-2464696.641528,-47604.387713,-2541468.982872,-2523611.369564
107.0,1.41796875,-336833.994011,-6282.807145,-1379760.131807,-19390.227722,-1311406.709123,-1622959.807272,-1901118.32632,-2409587.432097,-3547818.904855,-2540585.999559,-2546649.938422,-2458353.216452,-2464699.860179,-48125.272766,-2541440.015011,-2523607.078029
108.0,1.421875,-336876.909361,-6179.810307,-1379839.525204,-19381.10821,-1311391.688751,-1622946.396225,-1901310.908951,-2409572.411725,-3547800.12939,-2540569.906303,-2546633.308725,-2458334.977428,-2464718.099203,-48360.770745,-2541413.729359,-2523587.229679
109.0,1.42578125,-336827.556709,-5881.548629,-1379877.612576,-19247.534185,-1311403.490472,-1622952.297086,-1901350.605649,-2409596.015167,-3547807.639576,-2540598.874163,-2546657.448609,-2458344.633382,-2464728.82804,-48159.605045,-2541438.942127,-2523604.932261
110.0,1.4296875,-336189.190887,-5833.268861,-1376138.076322,-18664.421876,-1305789.089893,-1617378.666088,-1897666.859349,-2404026.139262,-3542244.737416,-2534972.671863,-2541041.975146,-2452730.769245,-2458992.118715,-47428.971223,-2535866.920455,-2518028.619054
111.0,1.43359375,-335396.86625,-5934.119932,-1370424.433997,-17960.610147,-1298222.040918,-1609963.966604,-1892014.907839,-2396514.880242,-3534818.772652,-2527335.349004,-2533535.00766,-2445232.92127,-2449661.248882,-46585.148166,-2528433.981947,-2510576.905081
112.0,1.4375,-336928.944222,-6211.460377,-1378398.642349,-19300.64193,-1310872.949466,-1622560.158081,-1899672.615489,-2409062.255509,-3547373.121664,-2539978.210923,-2546197.717929,-2457918.162098,-2461687.739097,-48229.87893,-2541028.564099,-2523178.997419
113.0,1.44140625,-336940.209501,-5901.93342,-1378739.819376,-19222.321418,-1311436.213426,-1623074.06939,-1900171.506425,-2409637.321191,-3547895.616042,-2540572.588512,-2546741.669982,-2458443.875127,-2462995.584368,-48178.380511,-2541554.81357,-2523728.31389
114.0,1.4453125,-336845.25929,-5937.875025,-1378689.393841,-19211.59258,-1311448.015147,-1623060.658343,-1900103.91475,-2409657.705981,-3547883.814321,-2540593.509745,-2546732.014028,-2458433.14629,-2463475.699839,-47993.844508,-2541553.740687,-2523720.803704
115.0,1.44921875,-336871.0085,-6245.256215,-1378714.606609,-19346.775931,-1311474.837241,-1623076.751599,-1900140.392797,-2409685.064517,-3547898.298251,-2540603.70214,-2546728.258935,-2458443.338685,-2463830.287913,-48108.643068,-2541557.49578,-2523724.022356
116.0,1.453125,-336531.97724,-6206.095958,-1376916.989913,-19090.356718,-1308395.660924,-1620015.277864,-1898583.638499,-2406646.657782,-3544869.011029,-2537535.791103,-2543650.691944,-2455363.089486,-2461062.24788,-47950.929159,-2538484.220324,-2520660.402854
117.0,1.45703125,-328183.332465,-4262.567075,-1344659.131129,-13081.134925,-1260821.850398,-1572850.772482,-1868689.342581,-2360838.813882,-3500925.302616,-2491592.763852,-2497959.255929,-2409488.726793,-2415676.047287,-39129.142657,-2493015.944125,-2475170.66898
118.0,1.4609375,-321074.941286,-2920.389524,-1320600.786281,-8572.341033,-1228267.339261,-1539209.430123,-1847066.980251,-2330207.98328,-3473684.248171,-2461413.080861,-2468578.334877,-2379915.759553,-2383718.059506,-30658.189137,-2463865.156634,-2445818.179347
119.0,1.46484375,-323656.835992,-3494.918763,-1326248.982698,-10152.162332,-1239411.382605,-1545448.785478,-1852414.23278,-2338546.43566,-3483968.375202,-2473075.327048,-2480841.932397,-2392211.543585,-2389062.093385,-32446.686321,-2476145.383852,-2457197.184229
120.0,1.46875,-329368.332549,-4451.931054,-1338517.944636,-13496.877372,-1263994.904041,-1562576.837847,-1862346.990388,-2355197.591209,-3501697.242462,-2495795.249438,-2503699.720347,-2415221.144583,-2401125.061646,-38477.365789,-2498916.26822,-2477453.229124
121.0,1.47265625,-337240.616946,-5595.088672,-1360487.384854,-18510.999502,-1306977.308628,-1599692.177736,-1882061.228998,-2389956.341977,-3542262.439997,-2536588.971208,-2544142.609136,-2455856.616003,-2431021.503332,-46802.407122,-2539107.029332,-2517619.31391
122.0,1.4765625,-337772.230836,-5641.759114,-1362702.889765,-18988.432764,-1311715.163197,-1612278.176818,-1884984.300731,-2398241.686611,-3548623.031214,-2540591.900419,-2547711.020435,-2459438.97479,-2442049.13879,-47697.192156,-2542607.848955,-2524477.186737
123.0,1.48046875,-337512.592973,-5948.603862,-1363187.833212,-19147.755998,-1311642.743545,-1617824.985722,-1886116.729512,-2402830.946783,-3548507.696212,-2540595.11907,-2547450.309688,-2459168.071648,-2448500.925124,-47771.221134,-2542321.92544,-2524664.404948
124.0,1.484375,-337422.470739,-6160.4984,-1364072.962293,-19292.595302,-1311583.73494,-1620854.809386,-1887482.510505,-2406427.789501,-3548333.352606,-2540581.708024,-2547261.482151,-2458968.515273,-2453057.998783,-48065.727719,-2542098.765623,-2524431.589178
125.0,1.48828125,-337330.202738,-5953.968281,-1365130.289212,-19204.082394,-1311564.959474,-1622748.449176,-1888860.629661,-2408953.35781,-3548205.679441,-2540595.11907,-2547145.610707,-2458829.040388,-2456168.288728,-48146.73044,-2541950.707668,-2524258.854897
126.0,1.4921875,-337181.608341,-5758.703441,-1366181.17883,-19080.164323,-1311555.303521,-1623373.403951,-1889937.268488,-2409758.557052,-3548108.047021,-2540607.993675,-2547059.243567,-2458726.043549,-2458217.496659,-47934.835903,-2541854.684574,-2524127.963081
127.0,1.49609375,-337072.710642,-5994.201421,-1367187.543772,-19189.062022,-1311555.839962,-1623365.357323,-1890817.03315,-2409806.83682,-3548059.767253,-2540618.722513,-2546998.625636,-2458670.790037,-2459577.913234,-47894.066321,-2541799.431062,-2524048.033243
128.0,1.5,-337086.65813,-6240.428238,-1368241.652041,-19343.020838,-1311542.965358,-1623322.978416,-1891816.96079,-2409798.253751,-3548013.633253,-2540607.457233,-2546936.934821,-2458616.609408,-2460565.502711,-48134.928719,-2541731.302945,-2523969.176289
129.0,1.50390625,-337085.048805,-6084.323655,-1369276.984844,-19283.47579,-1311509.705962,-1623256.459624,-1892852.830035,-2409767.140122,-3547947.114461,-2540590.291094,-2546877.926216,-2458546.335524,-2461317.594208,-48255.091698,-2541651.909548,-2523886.564241
130.0,1.5078125,-337001.363874,-5820.394256,-1370198.055529,-19125.22544,-1311493.612706,-1623207.643414,-1893619.405463,-2409754.265518,-3547898.834693,-2540595.11907,-2546847.885471,-2458500.201523,-2461903.388727,-48036.759858,-2541619.186594,-2523835.065822
131.0,1.51171875,-336798.588848,-5963.087793,-1370355.769438,-19090.356718,-1310190.058969,-1621888.532864,-1893536.793415,-2408465.195711,-3546582.942794,-2539288.883124,-2545512.681665,-2457171.435019,-2461055.274136,-47811.454274,-2540305.440462,-2522509.517969
132.0,1.515625,-335250.41762,-5877.793536,-1363055.332071,-17848.493796,-1296458.22006,-1608235.014467,-1886291.073119,-2394866.394385,-3533034.030561,-2525526.467028,-2531804.982639,-2443457.298691,-2447003.179431,-46321.755209,-2526691.618763,-2508904.27934
133.0,1.51953125,-336563.62731,-6022.096398,-1368859.09663,-18814.089157,-1307026.66128,-1618838.86085,-1891705.380881,-2405324.865022,-3543556.337781,-2536068.622597,-2542437.796883,-2454108.351959,-2455660.27828,-47621.017411,-2537263.278635,-2519445.898467
134.0,1.5234375,-337079.684386,-5825.222233,-1371993.526458,-19130.589858,-1311544.574683,-1623305.275834,-1894736.27743,-2409802.545286,-3547971.254345,-2540614.96742,-2546919.23224,-2458577.985594,-2460989.291786,-48064.118393,-2541701.2622,-2523903.193939
135.0,1.52734375,-336927.871338,-5913.735141,-1372293.397462,-19127.371207,-1311140.633957,-1622862.174852,-1894914.376129,-2409412.552048,-3547532.444898,-2540220.682647,-2546471.839723,-2458131.665961,-2461459.751303,-47883.337484,-2541262.989195,-2523467.066701
136.0,1.53125,-335583.011577,-5856.872303,-1365355.594797,-18021.228078,-1298848.605019,-1610611.988379,-1888142.870443,-2397217.619087,-3535357.360286,-2527898.612964,-2534172.300598,-2445834.809045,-2449410.73053,-46655.42205,-2529029.432419,-2511241.020112
137.0,1.53515625,-336372.654006,-6017.268421,-1368937.417142,-18645.109969,-1305207.050467,-1617018.713596,-1891444.133692,-2403522.420349,-3541719.560828,-2534224.335459,-2540589.754652,-2452264.06482,-2454001.063585,-47430.044106,-2535425.965241,-2517613.949491
138.0,1.5390625,-337097.92341,-5869.746908,-1373085.185657,-19158.484835,-1311553.157753,-1623317.077555,-1895496.951997,-2409822.930076,-3547964.280601,-2540605.311466,-2546908.503402,-2458573.157617,-2460972.125646,-48111.325277,-2541695.897781,-2523899.975288
139.0,1.54296875,-336972.396013,-5885.840164,-1373477.861104,-19142.928021,-1311508.633078,-1623229.101089,-1895821.499326,-2409791.816448,-3547882.204995,-2540577.416489,-2546825.891355,-2458487.86336,-2461852.42675,-47922.49774,-2541619.186594,-2523823.800543
140.0,1.546875,-336952.011222,-6228.626517,-1373916.670551,-19326.39114,-1311100.937259,-1622803.702689,-1896212.565447,-2409397.531676,-3547448.223525,-2540157.382507,-2546367.233559,-2458042.080169,-2462034.280543,-48004.573346,-2541175.54917,-2523382.308886
141.0,1.55078125,-337014.77492,-6340.206425,-1374395.713138,-19412.221839,-1310859.538419,-1622554.793662,-1896758.663268,-2409160.960813,-3547187.512778,-2539906.864155,-2546095.257532,-2457773.322794,-2462138.886707,-48207.884813,-2540895.526516,-2523115.160837
142.0,1.5546875,-336992.780804,-5942.16656,-1374879.583702,-19213.738348,-1311522.044125,-1623189.404391,-1897237.705855,-2409812.737681,-3547834.461669,-2540593.509745,-2546767.955633,-2458433.682732,-2463096.435439,-48191.791557,-2541538.720314,-2523749.235123
143.0,1.55859375,-336894.611942,-5866.528257,-1375266.358288,-19168.140789,-1311536.528055,-1623187.795065,-1897486.078439,-2409836.341123,-3547835.534553,-2540619.795396,-2546776.002261,-2458435.828499,-2463368.947908,-47970.777508,-2541555.886454,-2523748.16224
144.0,1.5625,-336871.544942,-6160.4984,-1375627.920106,-19293.131744,-1311515.606822,-1623165.264507,-1897714.602675,-2409818.638542,-3547807.639576,-2540586.536001,-2546732.014028,-2458405.251313,-2463576.014468,-48016.375067,-2541524.236384,-2523713.82996
145.0,1.56640625,-336933.772198,-6332.159797,-1376014.158251,-19402.565885,-1311236.657052,-1622887.38762,-1898134.636657,-2409546.126073,-3547522.788945,-2540294.711625,-2546431.070141,-2458110.208286,-2463449.950629,-48242.753535,-2541224.901822,-2523420.932701
146.0,1.5703125,-336952.011222,-6343.961518,-1376347.825092,-19306.542791,-1310816.086628,-1622465.207871,-1898516.583266,-2409137.357371,-3547086.661707,-2539871.995434,-2546000.843763,-2457666.570862,-2463066.931136,-48180.526278,-2540796.284771,-2522996.607184
147.0,1.57421875,-336879.055128,-5951.286072,-1376654.133398,-19160.630603,-1311493.612706,-1623126.104251,-1898684.48957,-2409803.081727,-3547756.141157,-2540558.641023,-2546689.098679,-2458349.461359,-2463847.454053,-48002.96402,-2541471.665081,-2523659.11289
148.0,1.578125,-336836.67622,-6054.819352,-1376897.678005,-19269.528302,-1311537.600939,-1623166.337391,-1898779.976223,-2409848.142844,-3547796.910739,-2540589.754652,-2546715.920772,-2458390.767382,-2463997.121334,-47991.698741,-2541512.434663,-2523692.908727
149.0,1.58203125,-336894.0755,-6251.693517,-1377193.257474,-19397.201466,-1311556.376404,-1623185.112856,-1899085.211645,-2409866.91831,-3547810.858227,-2540597.264838,-2546714.311446,-2458404.178429,-2464093.144428,-48229.87893,-2541514.58043,-2523698.809588
150.0,1.5859375,-336910.705198,-6032.825235,-1377496.347129,-19345.166605,-1311567.105242,-1623191.013717,-1899453.210766,-2409880.865798,-3547810.321785,-2540613.894536,-2546725.040284,-2458407.933522,-2464187.021755,-48287.27821,-2541517.26264,-2523703.637565
151.0,1.58984375,-336840.431314,-5808.056093,-1377717.361178,-19201.400185,-1311531.163637,-1623147.561925,-1899592.685651,-2409853.507263,-3547764.187785,-2540585.463117,-2546691.780888,-2458362.872405,-2464236.374406,-48046.415811,-2541491.51343,-2523665.01375
152.0,1.59375,-336802.880383,-6021.023514,-1377874.002203,-19239.487557,-1311528.481427,-1623143.806832,-1899594.294977,-2409854.580147,-3547756.141157,-2540568.296977,-2546672.468981,-2458354.825777,-2464285.727058,-47969.704624,-2541489.367663,-2523652.675587
153.0,1.59765625,-336875.300035,-6272.078308,-1378084.823857,-19390.764164,-1311542.428916,-1623160.972972,-1899793.314909,-2409865.845426,-3547768.47932,-2540564.541884,-2546668.713888,-2458366.091057,-2464327.033082,-48196.619534,-2541486.149011,-2523656.967122
154.0,1.6015625,-336910.168756,-6121.338144,-1378314.420976,-19381.10821,-1311554.230637,-1623170.092484,-1900108.206285,-2409881.40224,-3547775.989506,-2540578.489373,-2546679.442725,-2458373.064801,-2464375.849292,-48314.636745,-2541490.440546,-2523665.550192
155.0,1.60546875,-336850.623709,-5841.315489,-1378477.499304,-19237.878232,-1311549.40266,-1623158.827205,-1900229.442147,-2409886.766659,-3547765.260668,-2540586.536001,-2546684.807144,-2458365.018173,-2464444.513851,-48049.634463,-2541497.414291,-2523661.258657
156.0,1.609375,-336781.422708,-5990.446328,-1378567.621537,-19218.566325,-1311536.528055,-1623144.879716,-1900169.360658,-2409879.792914,-3547759.359808,-2540575.807163,-2546664.958795,-2458349.997801,-2464456.852014,-47636.574225,-2541480.248151,-2523649.993378
157.0,1.61328125,-336843.113523,-6277.442727,-1378703.877771,-19368.770047,-1311525.262776,-1623141.124623,-1900273.966822,-2409868.527635,-3547750.240296,-2540549.521512,-2546633.845166,-2458337.123196,-2464472.408828,-48025.494579,-2541435.723476,-2523630.145029
158.0,1.6171875,-336896.75771,-6201.804424,-1378876.612053,-19365.014954,-1311528.481427,-1623146.489042,-1900541.651314,-2409875.501379,-3547751.31318,-2540551.130837,-2546634.91805,-2458338.19608,-2464516.397061,-48324.82914,-2541426.603964,-2523629.072145
159.0,1.62109375,-336852.769477,-5890.131699,-1379005.358101,-19242.706209,-1311519.361916,-1623130.395786,-1900670.397362,-2409876.037821,-3547735.219924,-2540554.349489,-2546636.527376,-2458324.785033,-2464543.755596,-48140.82958,-2541426.067522,-2523619.416192
160.0,1.625,-336782.495592,-5966.306444,-1379047.200566,-19203.545952,-1311534.382288,-1623144.343274,-1900587.248872,-2409897.495496,-3547747.021645,-2540564.005442,-2546645.646887,-2458338.732521,-2464543.755596,-47967.022415,-2541453.426058,-2523636.582331
161.0,1.62890625,-336428.980402,-6153.524656,-1376485.15421,-18944.444531,-1307494.97503,-1619135.513203,-1898102.450145,-2405880.618796,-3543739.800899,-2536498.312533,-2542584.781955,-2454292.351519,-2460454.995686,-47696.655714,-2537424.211195,-2519613.268329
162.0,1.6328125,-335394.18404,-5903.006304,-1369465.812381,-17864.050611,-1297480.678258,-1609272.493037,-1891356.157226,-2395941.960328,-3533876.244292,-2526433.053784,-2532633.785323,-2444334.917585,-2448931.687943,-46661.859353,-2527539.196913,-2509719.134536
163.0,1.63671875,-336883.346663,-5901.93342,-1377437.338524,-19060.315974,-1310360.647483,-1622108.474029,-1898911.940922,-2408722.687807,-3546671.455702,-2539317.314543,-2545558.815665,-2457264.775904,-2460847.134691,-47964.876648,-2540403.072882,-2522566.380807
164.0,1.640625,-336924.116245,-5908.370722,-1378172.263881,-19173.505208,-1311579.979846,-1623277.380857,-1899643.647628,-2409946.848148,-3547841.435414,-2540552.203721,-2546742.206424,-2458445.484453,-2462793.882226,-47942.882531,-2541581.099222,-2523763.182612
165.0,1.64453125,-336899.976361,-6216.824796,-1378188.893579,-19318.880954,-1311586.417149,-1623262.896927,-1899693.536722,-2409959.186311,-3547826.415041,-2540548.98507,-2546709.48347,-2458428.318313,-2463315.840163,-48038.369183,-2541553.740687,-2523747.625798
166.0,1.6484375,-336948.256129,-6297.827518,-1378325.686255,-19395.055699,-1311574.615428,-1623242.512136,-1899973.559376,-2409951.676125,-3547800.665832,-2540536.110465,-2546677.8334,-2458404.178429,-2463643.606143,-48277.085814,-2541514.58043,-2523714.366402
167.0,1.65234375,-336931.089989,-6120.26526,-1378476.962862,-19299.569046,-1311578.370521,-1623228.028205,-1900231.051473,-2409960.259194,-3547785.109018,-2540550.057954,-2546678.369841,-2458387.548731,-2463916.118612,-48213.249232,-2541505.460919,-2523700.955355
168.0,1.65625,-336859.743221,-6138.504283,-1378547.773188,-19196.035766,-1311602.510405,-1623243.048578,-1900249.290496,-2409989.227055,-3547793.692087,-2540574.197838,-2546691.780888,-2458395.058917,-2464096.899521,-47985.79788,-2541529.600803,-2523710.611309
169.0,1.66015625,-336866.180523,-6162.107725,-1378625.557259,-19300.105488,-1311600.901079,-1623239.293485,-1900252.509147,-2409986.008404,-3547783.499692,-2540555.958814,-2546665.495237,-2458383.793638,-2464205.260778,-48016.375067,-2541515.116872,-2523692.908727
170.0,1.6640625,-336936.99085,-6289.78089,-1378778.443191,-19406.320978,-1311590.172242,-1623233.929066,-1900477.278289,-2409978.498218,-3547772.234413,-2540536.646907,-2546642.964678,-2458371.991917,-2464302.356756,-48259.383233,-2541489.367663,-2523671.987494
171.0,1.66796875,-336942.89171,-6027.460817,-1378941.521518,-19312.980093,-1311563.88659,-1623199.060345,-1900733.16106,-2409953.28545,-3547738.975017,-2540518.407883,-2546618.288352,-2458336.586754,-2464374.776408,-48261.529,-2541458.254034,-2523638.191657
172.0,1.671875,-336862.42543,-5854.190094,-1379022.52424,-19222.321418,-1311553.694195,-1623180.284879,-1900745.499223,-2409951.139683,-3547721.272435,-2540516.262116,-2546609.168841,-2458321.02994,-2464419.837525,-47955.220694,-2541459.326918,-2523624.78061
173.0,1.67578125,-336832.921127,-6105.781329,-1379070.804008,-19288.840209,-1311584.271381,-1623211.934949,-1900680.053315,-2409986.008404,-3547755.068273,-2540540.938442,-2546625.798538,-2458350.534242,-2464456.852014,-47660.177667,-2541476.493058,-2523652.675587
174.0,1.6796875,-336916.069617,-6317.675867,-1379192.576312,-19400.956559,-1311594.463777,-1623228.564647,-1900837.230782,-2409994.055032,-3547767.406436,-2540537.719791,-2546620.970562,-2458355.898661,-2464512.105526,-48145.657557,-2541453.426058,-2523655.357797
175.0,1.68359375,-336939.673059,-6112.218632,-1379332.587639,-19334.437768,-1311590.708684,-1623222.663787,-1901085.066925,-2409996.737241,-3547759.359808,-2540538.792674,-2546618.824794,-2458346.242708,-2464556.630201,-48297.470605,-2541442.160778,-2523647.84761
176.0,1.6875,-336869.935616,-5871.892675,-1379405.007291,-19217.493441,-1311586.953591,-1623208.179856,-1901113.498344,-2410003.174544,-3547748.630971,-2540545.229977,-2546623.116329,-2458339.805405,-2464578.624317,-48059.290416,-2541450.743848,-2523644.628959
177.0,1.69140625,-336806.099034,-6067.693957,-1379421.636989,-19240.023999,-1311588.026474,-1623211.934949,-1901000.845552,-2410007.466079,-3547748.094529,-2540533.428256,-2546612.387492,-2458340.341847,-2464570.041248,-47968.095299,-2541460.936244,-2523643.019634
178.0,1.6953125,-336855.988128,-6320.894518,-1379502.639711,-19384.863303,-1311584.271381,-1623216.226484,-1901091.504227,-2410004.247427,-3547744.875877,-2540511.970581,-2546589.856933,-2458334.440986,-2464575.942108,-48177.844069,-2541444.842988,-2523632.290796
179.0,1.69921875,-336891.929733,-6183.028958,-1379616.901829,-19370.379373,-1311598.755312,-1623228.564647,-1901325.392881,-2410022.486451,-3547753.458947,-2540527.527395,-2546604.340864,-2458344.633382,-2464608.665062,-48308.199442,-2541451.816732,-2523642.483192
180.0,1.703125,-336839.894872,-5894.959676,-1379682.347737,-19229.831604,-1311579.443405,-1623201.742554,-1901387.620138,-2410011.757614,-3547726.636854,-2540522.162977,-2546595.221352,-2458320.493498,-2464627.976969,-48090.404044,-2541442.69722,-2523624.244168
181.0,1.70703125,-336788.396452,-6027.997259,-1379672.155341,-19216.956999,-1311574.615428,-1623197.451019,-1901259.410531,-2410011.221172,-3547720.199552,-2540507.142604,-2546581.810305,-2458312.983312,-2464625.29476,-47949.319833,-2541446.452313,-2523617.806866
182.0,1.7109375,-336853.84236,-6316.602983,-1379714.534249,-19368.770047,-1311592.854451,-1623223.200229,-1901294.279253,-2410028.923753,-3547741.657226,-2540503.387511,-2546581.273863,-2458329.61301,-2464624.221876,-48129.027859,-2541456.108267,-2523626.926378
183.0,1.71484375,-336909.095873,-6325.186053,-1379808.411575,-19387.009071,-1311591.245126,-1623224.273112,-1901515.293302,-2410028.923753,-3547735.219924,-2540499.632418,-2546575.373003,-2458325.857917,-2464647.825318,-48312.490977,-2541442.69722,-2523622.098401
184.0,1.71875,-336875.300035,-6301.582611,-1379862.592204,-19263.090999,-1311597.145986,-1623224.273112,-1901609.170629,-2410036.970381,-3547725.56397,-2540510.897697,-2546586.638282,-2458321.02994,-2464663.918574,-48137.610929,-2541454.498941,-2523622.634843
185.0,1.72265625,-336825.947383,-6051.600701,-1379838.988762,-19199.790859,-1311624.504521,-1623249.48588,-1901476.133046,-2410063.792475,-3547742.193668,-2540523.23586,-2546600.585771,-2458337.123196,-2464640.315132,-47960.048671,-2541488.294779,-2523641.94675
186.0,1.7265625,-336859.743221,-6224.334982,-1379784.271691,-19349.45814,-1311525.799218,-1623157.754321,-1901391.375231,-2409967.769381,-3547646.170574,-2540404.145766,-2546485.250769,-2458237.345009,-2464515.860619,-48089.867603,-2541383.688615,-2523540.022795
187.0,1.73046875,-335655.43123,-5905.688513,-1372126.564041,-18207.909847,-1300035.75087,-1611770.16637,-1894141.899841,-2398566.770383,-3536282.186065,-2528892.103302,-2535013.441445,-2446757.489056,-2452629.381732,-46972.995636,-2529963.914152,-2512136.87803
188.0,1.734375,-336062.590607,-5683.60158,-1373750.373572,-18365.623756,-1303709.841217,-1615520.967903,-1895534.502928,-2402217.257287,-3540000.801087,-2532541.517322,-2538781.409118,-2450521.701637,-2454278.404031,-46841.567378,-2533727.59029,-2515878.02361
189.0,1.73828125,-336976.151106,-5876.18421,-1378786.489819,-19179.406068,-1311698.533499,-1623433.48544,-1900317.955055,-2410144.795197,-3547900.980461,-2540546.839302,-2546749.71661,-2458503.420175,-2462471.480664,-47873.68153,-2541641.180711,-2523817.899682
190.0,1.7421875,-336954.156989,-6187.320493,-1378715.679492,-19321.563163,-1311689.950429,-1623399.689603,-1900312.590636,-2410144.795197,-3547866.111739,-2540533.428256,-2546697.145307,-2458462.114151,-2463127.012626,-48042.124276,-2541589.14585,-2523787.322496
191.0,1.74609375,-337009.410502,-6287.635122,-1378787.562703,-19410.076071,-1311655.081708,-1623349.264067,-1900562.036104,-2410113.681568,-3547811.931111,-2540496.950209,-2546634.91805,-2458406.324197,-2463551.338142,-48292.642628,-2541518.335523,-2523728.31389
192.0,1.75,-336992.244362,-5998.492956,-1378890.023099,-19302.251256,-1311671.174964,-1623345.508974,-1900802.362061,-2410135.675685,-3547810.321785,-2540526.454511,-2546647.256213,-2458403.641987,-2463852.818472,-48243.289977,-2541519.944849,-2523725.631681
193.0,1.75390625,-336901.585686,-5897.641885,-1378937.766425,-19216.956999,-1311663.664778,-1623324.0513,-1900801.825619,-2410136.212127,-3547789.400552,-2540525.381628,-2546634.381608,-2458385.402964,-2464056.666381,-48014.765741,-2541515.653314,-2523706.319774
194.0,1.7578125,-336887.638198,-6183.5654,-1378990.87417,-19314.589419,-1311668.492755,-1623328.342835,-1900776.076409,-2410141.576545,-3547788.327669,-2540515.725674,-2546618.288352,-2458382.184313,-2464197.750592,-48035.686974,-2541511.898221,-2523699.34603
195.0,1.76171875,-336980.442641,-6347.180169,-1379120.15666,-19425.096443,-1311670.10208,-1623332.634369,-1900981.533644,-2410141.576545,-3547785.109018,-2540501.241744,-2546600.049329,-2458373.064801,-2464308.794058,-48282.450233,-2541490.976988,-2523683.789216
196.0,1.765625,-336993.317246,-6099.880469,-1379258.558662,-19340.338628,-1311644.352871,-1623300.984299,-1901228.296903,-2410119.582429,-3547750.776738,-2540485.68493,-2546577.51877,-2458341.951173,-2464394.088315,-48300.689256,-2541461.472686,-2523648.920494
197.0,1.76953125,-336919.82471,-5921.781769,-1379325.613895,-19241.633325,-1311651.863057,-1623300.447857,-1901241.171508,-2410138.894336,-3547748.630971,-2540502.851069,-2546588.78405,-2458344.633382,-2464445.586734,-48060.3633,-2541482.393918,-2523656.967122
198.0,1.7734375,-336876.909361,-6168.008586,-1379357.800407,-19297.959721,-1311651.863057,-1623300.447857,-1901156.950135,-2410142.649429,-3547747.021645,-2540489.976465,-2546574.300119,-2458342.487614,-2464475.091037,-48021.739485,-2541484.003244,-2523653.212029
199.0,1.77734375,-336941.282385,-6392.777728,-1379456.505711,-19430.460862,-1311638.988452,-1623296.692764,-1901287.305509,-2410130.311266,-3547736.292808,-2540463.690813,-2546548.014468,-2458331.222335,-2464516.397061,-48257.237465,-2541459.86336,-2523633.900122
200.0,1.78125,-336969.177362,-6201.804424,-1379582.033108,-19378.426001,-1311629.332498,-1623281.672392,-1901514.220418,-2410123.873964,-3547720.735993,-2540455.107743,-2546538.358514,-2458314.056196,-2464546.437805,-48340.922396,-2541442.69722,-2523617.806866
201.0,1.78515625,-336906.950105,-6001.711607,-1379642.651038,-19241.633325,-1311636.842684,-1623281.672392,-1901540.50607,-2410137.821452,-3547719.126668,-2540471.737441,-2546551.769561,-2458313.519754,-2464570.041248,-48109.17951,-2541460.936244,-2523626.926378
202.0,1.7890625,-336871.544942,-6323.576727,-1379641.578155,-19285.621558,-1311648.107964,-1623294.010555,-1901417.660882,-2410149.623173,-3547722.881761,-2540467.982348,-2546546.941584,-2458319.420614,-2464564.676829,-48013.692857,-2541475.956616,-2523632.290796
203.0,1.79296875,-336941.282385,-6403.506566,-1379705.951179,-19431.533746,-1311674.930057,-1623329.95216,-1901490.080534,-2410178.054592,-3547752.386064,-2540476.028976,-2546559.816189,-2458347.315591,-2464585.598062,-48226.660279,-2541492.049872,-2523651.602704
204.0,1.796875,-336984.197734,-6261.349471,-1379813.775994,-19424.02356,-1311654.008824,-1623307.421602,-1901707.33949,-2410158.206243,-3547726.636854,-2540454.034859,-2546534.066979,-2458320.493498,-2464604.373527,-48373.108908,-2541459.86336,-2523624.78061
205.0,1.80078125,-336936.99085,-5973.280188,-1379871.711716,-19307.615674,-1311669.029196,-1623313.858904,-1901756.692142,-2410180.736802,-3547733.610598,-2540480.320511,-2546556.597538,-2458330.149452,-2464629.586295,-48090.404044,-2541485.076128,-2523640.337424
