Index,Timestamp,Fp1,Fp2,F3,F4,T5,T6,O1,O2,F7,F8,C3,C4,T3,T4,P3,P4
0.0,0.0,0.0,0.0,0.0,0.0,0.0,0.0,0.0,0.0,0.0,0.0,0.0,0.0,0.0,0.0,0.0,0.0
1.0,0.00390625,-475822.326639,-6190.002702,-283233.795552,1759294.898426,-577598.2234,-708233.083276,-599501.681268,-759342.045706,-3821247.079521,-3427332.452218,-3434223.047998,-3192558.132715,-3057440.228157,-1038445.238882,-3386773.155543,-2727412.072112
2.0,0.0078125,-475760.099382,-5808.056093,-283281.538878,1759427.399567,-577614.316656,-708237.374811,-599606.287432,-759372.08645,-3821239.569335,-3427350.154799,-3434236.995487,-3192546.330994,-3057533.0326,-1038200.62139,-3386782.275055,-2727423.873833
3.0,0.01171875,-475693.044149,-5816.102721,-283263.299854,1759709.031547,-577616.998865,-708234.692602,-599481.296477,-759383.888171,-3821226.69473,-3427337.280194,-3434220.902231,-3192525.409761,-3057365.126296,-1037996.773481,-3386776.910636,-2727423.873833
4.0,0.015625,-475731.131522,-6204.486633,-283265.982064,1759476.752219,-577637.383656,-708264.733346,-599417.459895,-759404.272962,-3821238.496451,-3427318.504729,-3434204.272533,-3192523.263994,-3057269.103202,-1038134.102599,-3386765.108915,-2727422.800949
5.0,0.01953125,-475774.583313,-6295.68175,-283333.573739,1759340.495985,-577648.112494,-708279.753718,-599584.829758,-759415.001799,-3821242.787986,-3427305.093682,-3434194.616579,-3192513.071598,-3057437.545948,-1038311.664857,-3386743.65124,-2727412.072112
6.0,0.0234375,-475732.204405,-5990.446328,-283389.900135,1759488.017498,-577657.232005,-708275.462183,-599723.768201,-759430.022172,-3821237.423567,-3427317.431845,-3434198.371672,-3192494.296133,-3057580.239484,-1038007.502318,-3386736.677496,-2727411.53567
7.0,0.02734375,-475690.898382,-6086.469422,-283377.561972,1759508.402289,-577691.027843,-708301.211393,-599622.380688,-759468.645986,-3821256.199033,-3427339.425962,-3434211.782719,-3192493.759691,-3057460.612948,-1037664.179523,-3386731.849519,-2727431.920461
8.0,0.03125,-475705.382312,-6212.533261,-283364.687367,1759242.863565,-577696.392262,-708313.549556,-599516.165199,-759474.546847,-3821254.053265,-3427309.921659,-3434183.887742,-3192476.593551,-3057320.065179,-1038266.60374,-3386684.642635,-2727418.509414
9.0,0.03515625,-475740.787475,-6340.742867,-283425.84174,1759058.864004,-577711.412634,-708335.007231,-599650.275666,-759487.421451,-3821263.172777,-3427295.437729,-3434172.622463,-3192473.3749,-3057450.956994,-1038611.53586,-3386662.648518,-2727413.144995
10.0,0.0390625,-475703.772986,-6030.143026,-283488.605438,1759169.371029,-577711.949076,-708329.10637,-599818.18197,-759494.931638,-3821247.615963,-3427294.364845,-3434166.18516,-3192448.162132,-3057623.154834,-1038496.737301,-3386648.164588,-2727399.733949
11.0,0.04296875,-475645.300823,-5836.487512,-283492.896973,1759157.032866,-577716.240611,-708323.20551,-599757.564039,-759508.879126,-3821231.522707,-3427292.219078,-3434158.138532,-3192422.412923,-3057539.469902,-1038210.813786,-3386644.945937,-2727397.588181
12.0,0.046875,-475669.440707,-6166.935702,-283475.730833,1759088.904749,-577720.532146,-708335.007231,-599625.062898,-759517.998638,-3821223.476079,-3427261.105449,-3434130.243555,-3192402.564574,-3057361.371203,-1038234.95367,-3386626.170471,-2727386.859344
13.0,0.05078125,-475717.720475,-6423.891356,-283526.156369,1759084.076772,-577719.995704,-708345.199626,-599717.867341,-759516.389312,-3821217.038777,-3427227.846054,-3434102.88502,-3192385.934876,-3057447.201901,-1038455.431277,-3386591.838192,-2727364.865227
14.0,0.0546875,-475693.044149,-6180.883191,-283594.284486,1759153.814215,-577718.92282,-708339.298766,-599901.330459,-759522.290173,-3821203.62773,-3427220.872309,-3434095.374834,-3192362.867875,-3057638.711648,-1038409.297277,-3386571.989843,-2727351.990623
15.0,0.05859375,-475617.942288,-5898.178327,-283606.622649,1759279.341612,-577743.599146,-708350.564045,-599881.48211,-759555.013127,-3821209.52859,-3427242.866426,-3434113.613857,-3192357.503457,-3057600.087833,-1038097.624552,-3386593.447518,-2727372.911855
16.0,0.0625,-475598.093939,-6157.279749,-283581.409881,1759098.024261,-577205.547953,-707816.804387,-599313.390173,-759024.47212,-3820657.529909,-3426667.264303,-3433536.938851,-3191787.265752,-3056874.281987,-1038061.682947,-3386031.256441,-2726818.767407
17.0,0.06640625,-475748.297661,-6529.570404,-283652.220208,1758889.348375,-570622.333362,-701320.493379,-594173.204204,-752494.901716,-3814095.772993,-3419996.073246,-3426901.152957,-3185147.724765,-3050558.215446,-1038283.233438,-3379429.266385,-2720229.651955
18.0,0.0703125,-475762.781592,-6319.285192,-283656.511743,1758985.371469,-575551.697678,-706259.513647,-598035.049204,-757380.277798,-3819042.83989,-3424928.656212,-3431902.936924,-3190147.899407,-3055392.629551,-1038325.612345,-3384380.624816,-2725118.783131
19.0,0.07421875,-475644.764381,-5936.265699,-283659.730394,1759197.802448,-577787.587379,-708442.295604,-599762.392016,-759609.730197,-3821239.569335,-3427187.076472,-3434125.95202,-3192351.066154,-3057491.726576,-1038043.980365,-3386609.004332,-2727345.55332
20.0,0.078125,-475575.56338,-6117.58305,-283629.153207,1759057.791121,-577798.316216,-708435.858302,-599582.147548,-759633.333639,-3821227.767614,-3427181.712053,-3434097.520601,-3192319.416084,-3057249.254852,-1037944.73862,-3386589.692424,-2727352.527064
21.0,0.08203125,-475621.160939,-6473.78045,-283652.75665,1758785.815094,-577824.065426,-708461.071069,-599578.928897,-759661.228616,-3821239.569335,-3427171.519658,-3434079.281578,-3192312.978782,-3057216.531899,-1038142.149227,-3386564.479657,-2727357.355041
22.0,0.0859375,-475622.233823,-6400.824356,-283723.566976,1758748.800605,-577824.065426,-708455.706651,-599768.292876,-759663.910826,-3821221.330311,-3427154.88996,-3434056.214578,-3192281.328712,-3057398.922133,-1038232.271461,-3386526.928726,-2727340.725343
23.0,0.08984375,-475543.91331,-6157.81619,-283763.263674,1758919.389119,-577812.800147,-708429.957441,-599843.394738,-759660.155733,-3821184.852265,-3427144.161122,-3434036.366229,-3192234.658269,-3057448.811227,-1037953.858132,-3386503.325284,-2727325.168529
24.0,0.09375,-475478.467402,-6283.880029,-283731.613604,1758833.021979,-577796.706891,-708407.963325,-599705.529178,-759646.744686,-3821147.837776,-3427103.927982,-3433990.232228,-3192184.232734,-3057255.155713,-1037792.925572,-3386465.774353,-2727292.982017
25.0,0.09765625,-475520.84631,-6442.13038,-283739.12379,1758549.244231,-577805.826402,-708424.056581,-599666.905363,-759654.254872,-3821150.519985,-3427075.496563,-3433965.555902,-3192171.894571,-3057189.709805,-1037955.467457,-3386439.488702,-2727282.25318
26.0,0.1015625,-475543.91331,-6451.786334,-283806.715465,1758397.967624,-577850.351077,-708470.727023,-599845.004063,-759703.071082,-3821184.315823,-3427102.318657,-3433991.841554,-3192198.716664,-3057380.146668,-1038094.942343,-3386457.727725,-2727311.221041
27.0,0.10546875,-475484.368263,-6080.568562,-283857.677443,1758609.32572,-577845.523101,-708455.170209,-599958.729739,-759710.581268,-3821159.639497,-3427095.881354,-3433983.794926,-3192163.847943,-3057480.997739,-1037857.298596,-3386445.389562,-2727301.028645
28.0,0.109375,-475427.505425,-6070.376166,-283840.511303,1758844.287258,-577839.085798,-708444.441371,-599841.785412,-759712.727036,-3821133.890287,-3427072.814354,-3433958.582158,-3192130.588547,-3057315.237202,-1037640.039639,-3386426.614097,-2727286.008273
29.0,0.11328125,-475467.738565,-6448.567682,-283841.047745,1758582.503627,-577890.584217,-708500.767768,-599764.001341,-759763.689013,-3821177.87852,-3427086.225401,-3433974.138972,-3192161.165733,-3057210.631038,-1037760.73906,-3386446.998888,-2727317.121901
30.0,0.1171875,-475498.315751,-6561.756916,-283903.811443,1758433.90923,-577901.313055,-708515.251698,-599921.71525,-759775.490734,-3821181.097171,-3427070.132145,-3433962.873693,-3192152.046222,-3057368.344947,-1037942.056411,-3386426.077655,-2727309.611715
31.0,0.12109375,-475453.791076,-6221.116331,-283959.601397,1758572.311231,-577890.584217,-708495.403349,-600069.236764,-759772.808525,-3821151.056427,-3427059.403307,-3433947.316879,-3192112.885965,-3057512.647809,-1037731.234757,-3386404.61998,-2727287.617598
32.0,0.125,-475387.272285,-6103.09912,-283948.87256,1758610.398604,-577879.85538,-708475.555,-599981.260297,-759768.51699,-3821130.671636,-3427045.992261,-3433921.031227,-3192071.579942,-3057390.875505,-1037263.457449,-3386367.605492,-2727269.915017
33.0,0.12890625,-475421.604564,-6460.369403,-283927.414885,1758359.880252,-577903.995264,-708506.132186,-599866.461738,-759792.120432,-3821148.374218,-3427035.263423,-3433911.375274,-3192073.189267,-3057236.380248,-1037718.360152,-3386335.955421,-2727275.279436
34.0,0.1328125,-475477.394519,-6659.925778,-283976.767537,1758163.006087,-577931.890241,-708541.000908,-599986.624716,-759818.406083,-3821169.831892,-3427036.336307,-3433913.521041,-3192082.308779,-3057354.9339,-1038161.997576,-3386323.080817,-2727280.643854
35.0,0.13671875,-475443.598681,-6371.320053,-284039.531236,1758179.099343,-577959.785218,-708564.60435,-600159.895439,-759859.175665,-3821184.315823,-3427062.085517,-3433938.197367,-3192087.673198,-3057531.959716,-1038064.365156,-3386340.783398,-2727299.41932
36.0,0.140625,-475366.351052,-6161.571284,-284041.140561,1758493.454277,-577942.082637,-708536.172931,-600110.006346,-759853.811247,-3821148.910659,-3427041.164284,-3433910.30239,-3192040.466313,-3057449.347669,-1037767.176362,-3386318.25284,-2727279.034529
37.0,0.14453125,-475352.940005,-6469.488915,-284014.85491,1758383.483694,-577958.175893,-708555.484838,-599969.458576,-759870.977386,-3821155.347962,-3427023.461702,-3433895.282018,-3192031.346802,-3057262.129457,-1037772.004339,-3386311.279096,-2727277.425203
38.0,0.1484375,-475415.703704,-6738.24629,-284060.452468,1758155.495901,-577978.024242,-708585.525582,-600051.534182,-759889.21641,-3821169.831892,-3427008.977772,-3433887.23539,-3192035.101895,-3057339.913528,-1037986.044644,-3386297.868049,-2727274.206552
39.0,0.15234375,-475408.193518,-6625.593498,-284126.434818,1758208.603645,-577887.902008,-708491.648256,-600155.603904,-759802.312827,-3821060.934193,-3426908.663143,-3433782.629226,-3191916.0118,-3057427.889994,-1037957.076783,-3386184.142373,-2727169.600388
40.0,0.15625,-475637.790637,-6544.054335,-284229.431657,1758702.130163,-561780.16207,-692514.800133,-587180.684469,-743813.126542,-3805002.010465,-3410705.436552,-3417599.250984,-3175677.916488,-3041956.37011,-1037869.100317,-3370102.151644,-2711105.848683
41.0,0.16015625,-476468.202647,-6482.36352,-283947.263235,1759579.212615,-527361.515446,-658631.522492,-558561.510868,-709586.526106,-3771022.173288,-3376077.5776,-3383351.729316,-3141375.141308,-3008844.495874,-1038413.05237,-3336003.224373,-2676800.391293
42.0,0.1640625,-476915.595164,-6637.395219,-283005.807758,1759536.297266,-522616.150691,-654283.124719,-554102.60607,-704788.590048,-3766675.38484,-3371193.274402,-3378979.191658,-3137023.524883,-3004344.821494,-1038615.290954,-3331651.071507,-2672001.382351
43.0,0.16796875,-477004.108072,-6446.421915,-282517.109217,1759316.892542,-530684.23637,-662386.079119,-559919.781675,-712788.54761,-3774848.076683,-3379165.873428,-3387251.125246,-3145306.72375,-3011634.530024,-1038413.588812,-3339954.118723,-2679969.153401
44.0,0.171875,-476591.047834,-6081.105003,-283167.27676,1758914.561142,-566827.007154,-698270.284923,-587047.110444,-748740.881531,-3810681.32051,-3415405.203748,-3423410.525729,-3181498.310745,-3044198.160672,-1037740.354269,-3376041.635995,-2715959.038253
45.0,0.17578125,-476155.99348,-6208.778168,-283414.040019,1758639.902906,-578250.53671,-709439.004593,-595308.851637,-760161.728878,-3821819.462993,-3426948.359841,-3434610.895468,-3192693.316065,-3053841.239672,-1037637.35743,-3387212.501432,-2727400.270391
46.0,0.1796875,-475989.696501,-6596.089196,-283461.246903,1758348.078531,-578209.767128,-709225.50073,-595168.303867,-760170.84839,-3821624.734595,-3426946.750515,-3434383.980558,-3192452.990109,-3053441.054039,-1037876.074061,-3386916.385521,-2727404.025484
47.0,0.18359375,-475881.871686,-6565.512009,-283556.733555,1758281.559739,-578173.825523,-709082.807193,-595409.702707,-760160.119553,-3821483.650384,-3426936.021678,-3434228.948859,-3192273.818526,-3053537.613575,-1038010.72097,-3386684.642635,-2727384.177135
48.0,0.1875,-475742.396801,-6207.705284,-283618.960812,1758442.492299,-578153.440732,-708979.273913,-595607.113315,-760153.145808,-3821383.335755,-3426945.14119,-3434129.170672,-3192142.390268,-3053617.006971,-1037761.811943,-3386540.876215,-2727374.521181
49.0,0.19140625,-475620.624497,-6273.687634,-283606.086207,1758371.145531,-578150.222081,-708923.483959,-595598.530245,-760160.119553,-3821325.936476,-3426942.995422,-3434060.506113,-3192056.023128,-3053458.756621,-1037601.952267,-3386445.389562,-2727376.666948
50.0,0.1953125,-475599.703264,-6652.415592,-283628.080324,1758093.805086,-578134.665267,-708884.323702,-595707.427944,-760147.78139,-3821282.484684,-3426909.736026,-3433985.940693,-3191985.749243,-3053464.121039,-1037763.957711,-3386352.585119,-2727357.355041
51.0,0.19921875,-475597.021055,-6692.648732,-283709.083046,1757989.735364,-578127.155081,-708853.746516,-596059.333808,-760134.906785,-3821242.787986,-3426883.986817,-3433934.442274,-3191928.886405,-3053793.496346,-1037917.916527,-3386276.410374,-2727334.288041
52.0,0.203125,-475527.283612,-6325.722495,-283770.77386,1758149.59504,-578145.930546,-708843.017679,-596347.939533,-760154.755134,-3821223.476079,-3426910.80891,-3433928.004972,-3191894.554126,-3054067.61814,-1037695.293152,-3386253.879816,-2727343.943995
53.0,0.20703125,-475441.452913,-6283.880029,-283762.727232,1758139.939086,-578118.035569,-708797.956562,-596383.881138,-760133.297459,-3821169.29545,-3426879.695282,-3433870.605692,-3191823.207357,-3054031.140093,-1037468.378242,-3386200.235629,-2727313.366808
54.0,0.2109375,-475430.724076,-6648.660499,-283763.800116,1757877.082572,-578135.201709,-708812.976934,-596435.915999,-760151.000041,-3821173.050543,-3426868.966445,-3433847.00225,-3191810.869194,-3054034.358744,-1037572.984406,-3386177.705071,-2727317.121901
55.0,0.21484375,-475452.718193,-6773.651454,-283831.391791,1757725.269523,-578140.566127,-708814.049818,-596738.469212,-760153.145808,-3821160.71238,-3426848.581654,-3433821.25304,-3191784.583543,-3054339.057724,-1037753.228873,-3386137.471931,-2727301.028645
56.0,0.21875,-475404.438425,-6435.156636,-283899.519908,1757858.307106,-578143.784779,-708797.42012,-597043.168192,-760154.755134,-3821136.572496,-3426850.190979,-3433806.76911,-3191748.105496,-3054648.04824,-1037594.442081,-3386116.550698,-2727291.909133
57.0,0.22265625,-475322.362819,-6284.952913,-283899.519908,1757915.706386,-578120.181336,-708756.114096,-597092.520844,-760134.906785,-3821088.292728,-3426818.540909,-3433763.85376,-3191688.024007,-3054651.266891,-1037318.710961,-3386078.463325,-2727260.259063
58.0,0.2265625,-475301.978028,-6620.22908,-283887.181745,1757676.989755,-578118.035569,-708758.796306,-597089.302193,-760136.51611,-3821079.173217,-3426785.281513,-3433730.594364,-3191662.811239,-3054601.377797,-1037368.600055,-3386048.959023,-2727245.238691
59.0,0.23046875,-475338.456075,-6825.149873,-283945.653909,1757479.579148,-578164.706011,-708810.831167,-597330.164591,-760183.722995,-3821119.406357,-3426805.129862,-3433749.906272,-3191689.633332,-3054848.677498,-1037576.203057,-3386060.760744,-2727271.524342
60.0,0.234375,-475307.878889,-6540.299242,-284014.85491,1757577.74801,-578167.388221,-708801.175213,-597633.254246,-760186.941646,-3821100.630891,-3426804.593421,-3433741.323202,-3191662.274797,-3055158.740897,-1037482.862172,-3386042.52172,-2727260.259063
61.0,0.23828125,-475229.558376,-6294.608867,-284026.120189,1757688.791476,-578158.805151,-708778.108213,-597699.236596,-760183.186553,-3821067.371496,-3426791.182374,-3433717.71976,-3191619.89589,-3055193.073177,-1037174.944541,-3386024.282697,-2727244.165807
62.0,0.2421875,-475218.293097,-6580.532382,-284003.053189,1757411.987473,-578155.050058,-708776.498887,-597652.029711,-760182.650111,-3821052.351123,-3426755.777211,-3433679.632387,-3191589.855145,-3055095.977199,-1037165.288587,-3385993.70551,-2727224.317458
63.0,0.24609375,-475281.593237,-6851.435524,-284049.187189,1757266.611727,-578184.55436,-708814.049818,-597826.90976,-760215.909507,-3821079.173217,-3426757.922978,-3433685.533248,-3191603.266192,-3055270.320805,-1037372.355148,-3385990.486859,-2727233.973412
64.0,0.25,-475264.427097,-6633.640126,-284121.070399,1757610.470964,-578195.81964,-708819.950678,-598124.634996,-760230.393437,-3821071.663031,-3426761.141629,-3433683.38748,-3191588.782261,-3055577.701995,-1037348.215264,-3385981.903789,-2727229.145435
65.0,0.25390625,-475188.788794,-6311.238564,-284144.1374,1757776.231501,-578207.621361,-708818.877795,-598218.512323,-760252.923996,-3821066.835054,-3426777.234885,-3433688.751899,-3191572.689005,-3055656.022508,-1036865.417584,-3385984.585999,-2727237.192063
66.0,0.2578125,-475163.039585,-6523.669544,-284117.315306,1757615.298941,-578219.423082,-708827.997306,-598143.410461,-760265.262159,-3821070.590147,-3426765.433164,-3433668.90355,-3191556.059308,-3055537.468855,-1036901.895631,-3385947.035068,-2727230.754761
67.0,0.26171875,-475234.922795,-6844.46178,-284150.574702,1757360.489054,-578207.084919,-708824.778655,-598260.354788,-760248.632461,-3821046.450263,-3426716.080513,-3433622.769549,-3191521.190586,-3055631.882624,-1037473.742661,-3385883.734928,-2727193.20383
68.0,0.265625,-475299.295819,-6774.724337,-284246.597796,1757389.993356,-573544.868653,-704203.868413,-595084.082494,-755626.112893,-3816383.697556,-3422007.730247,-3428918.710818,-3186797.819948,-3051582.28297,-1037558.500476,-3381201.670313,-2722525.623146
69.0,0.26953125,-475325.045028,-6639.540987,-284257.326634,1757612.080289,-573000.9166,-703708.73257,-594569.634744,-755086.452375,-3815861.739619,-3421438.028984,-3428419.28344,-3186272.106918,-3051062.470801,-1037255.410821,-3380695.269191,-2721966.114279
70.0,0.2734375,-475210.782911,-6468.952473,-284175.251028,1757633.537964,-578271.457943,-708931.530587,-598340.284627,-760317.833462,-3821112.432612,-3426724.127141,-3433702.162946,-3191563.033052,-3055762.774439,-1037150.268215,-3385959.909673,-2727207.68776
71.0,0.27734375,-475212.392236,-6740.9285,-284196.172261,1757376.045868,-578296.670711,-708946.014517,-598368.179604,-760353.775067,-3821115.114822,-3426723.590699,-3433674.267968,-3191548.01268,-3055750.436276,-1037328.903357,-3385940.061324,-2727221.098807
72.0,0.28125,-475211.855794,-6703.914011,-284268.055471,1757319.719472,-578302.571571,-708939.577215,-598618.697955,-760362.358136,-3821095.266473,-3426713.398303,-3433649.591643,-3191515.289726,-3055986.470698,-1037435.118846,-3385900.901067,-2727209.297086
73.0,0.28515625,-475149.092096,-6321.43096,-284316.871681,1757495.135962,-578287.551199,-708904.708493,-598776.948306,-760355.384392,-3821052.887565,-3426702.133024,-3433622.769549,-3191461.645539,-3056116.289629,-1037165.288587,-3385866.032346,-2727187.839411
74.0,0.2890625,-475102.958095,-6349.862379,-284295.950448,1757446.856194,-578309.008874,-708914.364447,-598694.336259,-760382.742927,-3821053.960449,-3426703.74235,-3433617.405131,-3191447.69805,-3055983.788488,-1036970.023748,-3385867.641672,-2727199.10469
75.0,0.29296875,-475127.634421,-6710.351313,-284299.169099,1757181.853912,-578306.863106,-708915.437331,-598692.726933,-760380.060718,-3821043.768054,-3426668.337186,-3433579.8542,-3191422.485283,-3055939.800255,-1037101.988447,-3385832.77295,-2727177.647016
76.0,0.296875,-475149.092096,-6761.313291,-284367.297216,1757074.029097,-578301.498687,-708911.682238,-598926.615587,-760375.232741,-3821027.674797,-3426642.587977,-3433550.886339,-3191392.98098,-3056158.668537,-1037249.50996,-3385793.076252,-2727150.824922
77.0,0.30078125,-475095.447909,-6389.022635,-284423.623612,1757226.378587,-578329.393665,-708926.166168,-599116.516008,-760411.174346,-3821030.357007,-3426669.946512,-3433572.344014,-3191389.762329,-3056338.376562,-1037032.787446,-3385808.633066,-2727168.527504
78.0,0.3046875,-475038.04863,-6310.165681,-284411.285449,1757153.422493,-578333.148758,-708922.411075,-599060.189612,-760427.267602,-3821015.873076,-3426660.290558,-3433561.078735,-3191365.622445,-3056240.207701,-1036782.269094,-3385805.950857,-2727168.527504
79.0,0.30859375,-475050.386792,-6660.998662,-284401.093054,1757173.807284,-578333.148758,-708931.530587,-599012.982728,-760433.704905,-3821011.581541,-3426629.17693,-3433529.965106,-3191346.310538,-3056150.621909,-1036865.417584,-3385779.665205,-2727152.97069
80.0,0.3125,-475082.036863,-6799.937105,-284460.101659,1757123.381749,-578351.924223,-708957.279796,-599207.174683,-760454.626138,-3821025.52903,-3426623.812511,-3433527.819339,-3191348.992747,-3056345.886749,-1037045.125609,-3385767.863484,-2727150.824922
81.0,0.31640625,-475062.724955,-6465.19738,-284526.620451,1757254.273564,-578354.06999,-708948.696726,-599420.678547,-760460.526998,-3821006.217123,-3426619.520976,-3433520.309153,-3191322.707095,-3056559.390612,-1036887.948142,-3385754.98888,-2727136.877434
82.0,0.3203125,-474996.206164,-6282.807145,-284525.547567,1757330.984751,-578352.460665,-708934.212796,-599392.783569,-760465.354975,-3820987.441657,-3426614.156558,-3433505.825222,-3191289.984142,-3056500.918448,-1036434.654764,-3385739.968507,-2727126.685038
83.0,0.32421875,-474974.212047,-6601.990056,-284507.844985,1757102.996958,-578372.845456,-708956.743354,-599303.197778,-760487.349091,-3821008.36289,-3426606.10993,-3433494.559943,-3191291.593467,-3056373.781726,-1036594.514441,-3385710.464205,-2727131.513015
84.0,0.328125,-475011.226536,-6816.566803,-284563.098498,1756904.513467,-578376.064107,-708970.690843,-599453.4015,-760490.567743,-3821004.071355,-3426578.751395,-3433472.029385,-3191277.109537,-3056513.793053,-1037118.618145,-3385672.913274,-2727112.73755
85.0,0.33203125,-474997.279048,-6683.52922,-284627.471522,1756994.635701,-578384.647177,-708972.83661,-599677.097759,-760499.687254,-3820990.660309,-3426579.824278,-3433468.810733,-3191253.506095,-3056740.707963,-1037051.02647,-3385660.038669,-2727103.618038
86.0,0.3359375,-474979.576466,-6584.287475,-284629.617289,1757118.553772,-578396.98534,-708972.83661,-599682.462178,-760511.488975,-3820971.884843,-3426577.678511,-3433463.446315,-3191228.293327,-3056715.495195,-1036730.234233,-3385660.575111,-2727098.253619
87.0,0.33984375,-474958.118791,-6505.966962,-284596.357894,1756919.533839,-578389.475154,-708967.472192,-599567.127176,-760505.588115,-3820953.109378,-3426537.445371,-3433423.213175,-3191196.106815,-3056547.052449,-1036695.901954,-3385629.997925,-2727074.113735
88.0,0.34375,-474995.13328,-6742.537825,-284635.51815,1756605.715347,-578408.787061,-708998.58582,-599660.468061,-760530.264441,-3820972.421285,-3426528.862301,-3433419.458082,-3191202.007675,-3056632.883147,-1036894.921886,-3385618.732645,-2727074.650177
89.0,0.34765625,-474984.940885,-6547.809428,-284705.792034,1756885.738002,-578409.859945,-708998.58582,-599892.747389,-760539.383953,-3820963.301773,-3426520.279231,-3433411.947896,-3191181.086443,-3056859.798057,-1036887.948142,-3385603.175831,-2727062.312014
90.0,0.3515625,-474917.885651,-6213.069703,-284729.931918,1757136.792795,-578426.489642,-709002.877355,-599938.88139,-760562.450953,-3820957.937355,-3426536.372487,-3433422.140291,-3191167.138954,-3056878.037081,-1036565.010138,-3385615.513994,-2727071.431526
91.0,0.35546875,-474906.08393,-6407.261659,-284702.036941,1756988.73484,-578455.457503,-709030.772332,-599810.135342,-760594.637465,-3820968.666192,-3426534.22672,-3433421.603849,-3191170.357605,-3056699.938381,-1036470.59637,-3385624.633506,-2727085.379015
92.0,0.359375,-474961.337443,-6742.537825,-284734.223453,1756728.560535,-578458.676154,-709042.574053,-599855.196459,-760597.319674,-3820963.301773,-3426499.357998,-3433391.026663,-3191156.410117,-3056722.468939,-1036661.033232,-3385592.983436,-2727064.457782
93.0,0.36328125,-474973.139164,-6637.931661,-284808.788873,1756722.659674,-577631.482796,-708219.672229,-599449.109965,-759777.10006,-3820125.379577,-3425651.779849,-3432542.375629,-3190297.566688,-3056155.986328,-1036723.260489,-3384740.040867,-2726220.098283
94.0,0.3671875,-475025.710467,-6408.870984,-284876.380548,1756928.653351,-571144.827741,-701801.681733,-594463.955696,-753347.844285,-3813655.890662,-3419115.2357,-3426032.653574,-3183749.220818,-3049998.706579,-1036312.882461,-3378262.505324,-2719739.344089
95.0,0.37109375,-474983.868001,-6456.61431,-284784.112547,1756947.965258,-576772.102925,-707427.884034,-598476.540861,-758932.204119,-3819298.186219,-3424747.338861,-3431724.838224,-3189449.452096,-3055085.248361,-1036172.334692,-3383899.436462,-2725331.750552
96.0,0.375,-474972.06628,-6680.847011,-284783.039663,1756768.793675,-578556.845016,-709181.512497,-599776.339504,-760708.363141,-3821057.1791,-3426515.451254,-3433467.201408,-3191207.372094,-3056669.897636,-1036744.181722,-3385631.60725,-2727094.498526
97.0,0.37890625,-474970.456954,-6668.508848,-284853.84999,1756698.51979,-578535.923783,-709147.180217,-599963.021274,-760693.87921,-3821012.654425,-3426480.046091,-3433411.411454,-3191143.535512,-3056834.585289,-1036900.822747,-3385563.479133,-2727058.020479
98.0,0.3828125,-474906.08393,-6284.952913,-284906.421293,1756870.717629,-578509.10169,-709099.973333,-600080.502043,-760675.640187,-3820955.791587,-3426458.588416,-3433371.178314,-3191074.870953,-3056923.098197,-1036639.575558,-3385516.272249,-2727024.224642
99.0,0.38671875,-474853.512627,-6288.708006,-284886.572944,1756837.994675,-578525.194946,-709104.264868,-599969.995018,-760698.707187,-3820949.354285,-3426459.124858,-3433360.449476,-3191055.022604,-3056761.092754,-1036425.535253,-3385513.053598,-2727032.807712
100.0,0.390625,-474890.527116,-6659.925778,-284890.864478,1756571.919509,-578548.261946,-709131.623403,-599922.251692,-760721.237745,-3820963.301773,-3426446.786695,-3433347.574871,-3191054.486162,-3056670.97052,-1036552.135533,-3385500.715435,-2727040.317898
101.0,0.39453125,-474918.422093,-6738.24629,-284958.456154,1756449.074322,-578533.241574,-709117.675914,-600111.615671,-760705.680931,-3820934.870355,-3426406.553555,-3433306.268848,-3191014.789464,-3056849.06922,-1036710.922326,-3385449.217015,-2727001.694083
102.0,0.3984375,-474871.215209,-6370.783612,-285016.928317,1756607.324673,-578531.632248,-709104.80131,-600275.766882,-760711.581792,-3820913.949122,-3426406.017113,-3433298.22222,-3190985.285161,-3057000.882268,-1036506.001533,-3385436.878852,-2726988.819479
103.0,0.40234375,-474798.795557,-6266.177448,-285005.663038,1756606.788231,-578549.33483,-709111.775054,-600200.665021,-760738.403885,-3820917.704215,-3426413.5273,-3433302.513755,-3190975.629208,-3056882.865057,-1036240.999251,-3385446.534806,-2727001.157642
104.0,0.40625,-474828.29986,-6618.619754,-284995.470643,1756332.666437,-578564.891644,-709135.914938,-600118.589415,-760760.398002,-3820923.605075,-3426394.215392,-3433285.884057,-3190969.191905,-3056759.483428,-1036315.56467,-3385434.196643,-2726999.011874
105.0,0.41015625,-474885.162697,-6780.088756,-285057.697899,1756446.928554,-578586.349319,-709165.419241,-600275.766882,-760783.465002,-3820936.47968,-3426390.460299,-3433283.738289,-3190973.48344,-3056914.515127,-1036503.319323,-3385425.077131,-2726999.548316
106.0,0.4140625,-474851.36686,-6497.383892,-285123.680249,1756607.324673,-578598.687482,-709170.247217,-600465.667303,-760805.459119,-3820931.651703,-3426400.652695,-3433292.857801,-3190963.291045,-3057100.660455,-1036368.135973,-3385424.54069,-2727004.376293
107.0,0.41796875,-474790.212487,-6505.43052,-285122.070923,1756695.837581,-578592.786621,-709154.153961,-600425.434163,-760801.167584,-3820898.928749,-3426378.658578,-3433268.717917,-3190918.76637,-3057019.121292,-1036065.58276,-3385405.228782,-2726983.991502
108.0,0.421875,-474780.020092,-6578.923056,-285097.931039,1756473.750648,-578598.687482,-709165.419241,-600309.026278,-760805.99556,-3820893.027889,-3426349.690717,-3433239.213614,-3190901.063788,-3056859.261615,-1036081.139574,-3385386.989759,-2726971.116897
109.0,0.42578125,-474837.419371,-6743.074267,-285146.210807,1756261.85611,-578636.774854,-709209.943916,-600421.142628,-760844.082933,-3820923.068633,-3426355.591578,-3433249.942452,-3190920.375695,-3056967.08643,-1036282.841716,-3385390.20841,-2726985.600827
110.0,0.4296875,-474824.008325,-6480.754194,-285216.484692,1756343.931716,-578647.503692,-709214.235451,-600622.308328,-760860.712631,-3820918.777099,-3426362.02888,-3433254.233987,-3190906.964649,-3057168.788572,-1036187.891506,-3385384.30755,-2726981.845734
111.0,0.43359375,-474747.83358,-6189.466261,-285232.041506,1756476.969299,-578645.894366,-709198.142195,-600621.235445,-760865.540608,-3820906.975377,-3426364.71109,-3433244.578033,-3190876.387462,-3057146.794456,-1035648.767429,-3385363.922759,-2726974.87199
112.0,0.4375,-474730.130998,-6437.838845,-285205.755854,1756192.655109,-578653.940994,-709207.798148,-600486.052094,-760879.488096,-3820905.902494,-3426345.935624,-3433222.047475,-3190860.830648,-3056968.695756,-1035943.274014,-3385318.861642,-2726968.434688
113.0,0.44140625,-474803.623534,-6737.709849,-285244.379669,1756190.509342,-578638.38418,-709206.188823,-600555.789537,-760867.686375,-3820884.444819,-3426295.510089,-3433177.5228,-3190827.03481,-3057016.975524,-1036466.304835,-3385264.681013,-2726929.810873
114.0,0.4453125,-474797.186231,-6557.465381,-285316.262879,1756394.357251,-578656.623203,-709222.81852,-600762.856098,-760892.362701,-3820891.418563,-3426304.629601,-3433187.178753,-3190823.816159,-3057231.015829,-1036484.007416,-3385260.92592,-2726933.565966
115.0,0.44921875,-474727.98523,-6242.037564,-285345.23074,1756564.945765,-578700.611436,-709253.395707,-600799.334145,-760947.079771,-3820916.094889,-3426351.300043,-3433226.875451,-3190839.909415,-3057255.692155,-1036162.142296,-3385301.695502,-2726972.726223
116.0,0.453125,-474705.991114,-6544.054335,-285314.117111,1756431.908182,-578736.0166,-709288.264428,-600660.395701,-760981.948493,-3820933.797471,-3426355.591578,-3433232.23987,-3190846.88316,-3057066.864618,-1036047.880178,-3385319.398084,-2726992.03813
117.0,0.45703125,-474755.880208,-6711.960639,-285337.184112,1756167.442342,-578768.203112,-709329.570452,-600679.707608,-761010.916354,-3820957.937355,-3426349.154276,-3433231.703428,-3190858.684881,-3057065.255292,-1036235.634832,-3385316.715874,-2727000.084758
118.0,0.4609375,-474761.244626,-6590.724777,-285409.067322,1756141.693132,-578768.203112,-709329.570452,-600882.482634,-761014.671447,-3820945.06275,-3426334.133903,-3433217.75594,-3190837.227206,-3057264.275225,-1036308.590926,-3385289.357339,-2726982.382176
119.0,0.46484375,-474729.058114,-6221.652773,-285463.24795,1756345.541042,-575849.959356,-706422.055533,-598739.933817,-758130.223528,-3818013.944389,-3423399.796891,-3430276.981625,-3187865.875705,-3054560.071774,-1036008.719922,-3382366.822048,-2724064.674862
120.0,0.46875,-474790.748929,-6392.777728,-285443.399601,1756311.208762,-572000.98896,-702655.160744,-595510.553778,-754312.903203,-3814193.405413,-3419482.698379,-3426426.401904,-3184000.812054,-3050667.649587,-1035766.78464,-3378537.700002,-2720209.267164
121.0,0.47265625,-474782.702301,-6627.202824,-285391.901182,1756159.932156,-578493.008434,-709115.530147,-600372.326418,-760744.841188,-3820684.352003,-3425975.254294,-3432948.998564,-3190551.303691,-3056711.20366,-1036100.987923,-3385014.162661,-2726651.933986
122.0,0.4765625,-474781.092975,-6606.818033,-285457.883532,1756103.069318,-578807.89981,-709407.890964,-600746.2264,-761064.56054,-3820968.666192,-3426278.880391,-3433219.901707,-3190820.061066,-3057123.727456,-1036283.9146,-3385280.774269,-2726953.414315
123.0,0.48046875,-474729.058114,-6213.606145,-285510.991277,1756280.095134,-578798.780298,-709370.876476,-600850.296122,-761066.706308,-3820926.287285,-3426277.807507,-3433191.470288,-3190765.343996,-3057203.120852,-1036033.396248,-3385249.124199,-2726941.612594
124.0,0.484375,-474652.346927,-6184.638284,-285493.825137,1756265.611203,-578810.582019,-709369.803592,-600734.424679,-761087.627541,-3820916.631331,-3426277.807507,-3433179.132125,-3190741.740554,-3057033.06878,-1035805.944896,-3385241.614013,-2726946.977013
125.0,0.48828125,-474652.883369,-6552.100963,-285494.898021,1756001.681805,-578810.582019,-709372.485801,-600667.905887,-761091.382634,-3820905.902494,-3426242.938786,-3433144.263404,-3190718.137111,-3056921.488872,-1035922.352782,-3385205.135966,-2726929.274431
126.0,0.4921875,-474696.871602,-6642.759638,-285559.271045,1755872.399315,-578814.337112,-709378.923104,-600837.957959,-761095.674169,-3820899.465191,-3426222.553995,-3433121.732846,-3190695.606553,-3057082.421432,-1036089.722644,-3385171.87657,-2726911.57185
127.0,0.49609375,-474671.122393,-6339.669983,-285617.206766,1755980.22413,-578817.555763,-709369.803592,-600995.671868,-761102.111471,-3820875.325307,-3426221.481111,-3433113.149776,-3190664.492925,-3057228.870062,-1035895.530688,-3385156.856198,-2726899.770129
128.0,0.5,-474597.629857,-6385.803984,-285607.550813,1756041.378503,-578822.38374,-709368.730708,-600918.960681,-761119.814053,-3820860.841377,-3426215.043809,-3433102.95738,-3190640.353041,-3057108.170641,-1035618.726685,-3385152.028221,-2726898.697245
129.0,0.50390625,-474630.352811,-6456.61431,-285589.311789,1756100.92355,-578846.523624,-709399.307895,-600817.573168,-761139.662402,-3820872.106656,-3426201.09632,-3433090.082775,-3190638.743715,-3056967.08643,-1035680.953941,-3385145.054477,-2726901.379454
130.0,0.5078125,-474690.4343,-6586.969684,-285647.783953,1755949.646944,-578854.570252,-709416.474034,-600952.220077,-761147.172588,-3820871.570214,-3426179.638646,-3433073.453077,-3190625.86911,-3057095.832479,-1035872.463688,-3385120.378151,-2726889.041291
131.0,0.51171875,-474653.419811,-6266.177448,-285713.22986,1756069.809922,-578850.815159,-709399.844336,-601133.000986,-761147.70903,-3820845.821005,-3426168.373366,-3433061.651356,-3190593.682598,-3057276.613388,-1035752.30071,-3385099.456918,-2726870.802268
132.0,0.515625,-474576.708624,-6030.679468,-285720.203605,1756172.270319,-578852.424485,-709388.579057,-601093.840729,-761158.974309,-3820830.800632,-3426167.836925,-3433051.995403,-3190565.787621,-3057213.849689,-1035349.96931,-3385092.483174,-2726865.974291
133.0,0.51953125,-474550.959414,-6325.722495,-285699.818814,1755960.912223,-578882.465229,-709422.911337,-600964.55824,-761195.988798,-3820864.060028,-3426177.492878,-3433054.677612,-3190578.662226,-3057060.427315,-1035306.517518,-3385082.82722,-2726883.676873
134.0,0.5234375,-474606.749369,-6572.485754,-285747.56214,1755744.189709,-578877.637253,-709427.739314,-601058.972008,-761188.478612,-3820851.185423,-3426141.014831,-3433024.636868,-3190557.204551,-3057151.622433,-1035901.431549,-3385029.719475,-2726855.245454
135.0,0.52734375,-474598.702741,-6318.748751,-285815.153815,1755818.218686,-578888.902532,-709435.2495,-601255.309731,-761205.108309,-3820847.966772,-3426145.306366,-3433026.782635,-3190544.866388,-3057357.61611,-1035899.822223,-3385020.063522,-2726853.636128
136.0,0.53125,-474521.455112,-5997.420072,-285833.392839,1755923.361292,-578893.730509,-709427.739314,-601256.382615,-761220.128682,-3820833.482842,-3426149.597901,-3433026.782635,-3190521.262946,-3057337.231319,-1035568.837591,-3385024.355057,-2726854.17257
137.0,0.53515625,-474492.487251,-6228.626517,-285807.643629,1755774.766895,-578891.584741,-709428.275755,-601113.152637,-761224.420217,-3820820.071795,-3426116.874947,-3432996.205449,-3190496.58662,-3057148.940223,-1035509.292544,-3385005.579591,-2726838.615756
138.0,0.5390625,-474562.224694,-6541.908567,-285844.121676,1755792.469477,-578910.360206,-709458.3165,-601164.114614,-761242.65924,-3820831.337074,-3426100.781691,-3432984.940169,-3190496.58662,-3057185.954712,-1035709.38536,-3384989.486335,-2726834.860663
139.0,0.54296875,-474563.834019,-6451.786334,-285917.614212,1755830.020407,-578927.526346,-709472.263989,-601362.061663,-761263.044031,-3820835.092167,-3426103.463901,-3432988.158821,-3190490.149318,-3057395.16704,-1035732.988803,-3384983.049033,-2726832.714895
140.0,0.546875,-474520.382228,-6341.279309,-285942.826979,1756007.582665,-578942.546718,-709474.409756,-601402.831245,-761282.89238,-3820822.754004,-3426112.04697,-3432994.059681,-3190470.300969,-3057420.379808,-1035411.123682,-3384987.87701,-2726837.542872
141.0,0.55078125,-474495.16946,-6167.472144,-285909.031142,1755889.565455,-578975.269672,-709507.669152,-601257.455499,-761319.370427,-3820838.84726,-3426116.338505,-3432998.351216,-3190475.665388,-3057234.23448,-1035285.596286,-3385002.897382,-2726854.709012
142.0,0.5546875,-474553.641624,-6419.06338,-285929.415933,1755626.70894,-578976.342556,-709514.106454,-601259.064824,-761314.006008,-3820831.873516,-3426076.641807,-3432960.800285,-3190452.598387,-3057213.313247,-1035465.840753,-3384965.882893,-2726828.959802
143.0,0.55859375,-474561.15181,-6345.570844,-285998.080492,1755576.283404,-578973.123905,-709513.570012,-601450.574571,-761312.396683,-3820819.535353,-3426059.475667,-3432947.389239,-3190431.140713,-3057411.260296,-1035548.4528,-3384941.206567,-2726809.647895
144.0,0.5625,-474491.950809,-5940.020792,-286038.313632,1755698.59215,-578758.547158,-709287.727986,-601359.379454,-761114.986076,-3820588.86535,-3425851.336223,-3432732.27605,-3190187.059663,-3057273.931178,-1035116.617097,-3384720.192518,-2726592.388939
145.0,0.56640625,-474525.210205,-6034.971003,-286050.115353,1755977.541921,-572333.046476,-702927.673212,-596199.881577,-754746.348232,-3814182.676576,-3419367.899819,-3426258.4956,-3183695.04019,-3050947.1358,-1034995.381236,-3378272.69772,-2720175.471327
146.0,0.5703125,-474589.583229,-6378.83024,-286005.054236,1755813.39071,-575868.734821,-706501.448929,-598715.793933,-758247.704297,-3817751.624316,-3422864.96435,-3429843.536597,-3187300.465977,-3054158.813257,-1035539.86973,-3381812.6776,-2723669.317206
147.0,0.57421875,-474557.396717,-6343.961518,-286038.850074,1755730.778662,-579018.721464,-709613.3482,-601292.860662,-761376.233265,-3820872.106656,-3426020.315411,-3432979.575751,-3190439.187341,-3057286.269341,-1035734.061686,-3384929.941288,-2726790.335988
148.0,0.578125,-474474.248227,-5943.239444,-286090.348493,1755906.195153,-579020.330789,-709585.989664,-601385.665105,-761393.935847,-3820840.456586,-3426034.799342,-3432960.263844,-3190391.444014,-3057359.761877,-1035491.589962,-3384909.556497,-2726793.018197
149.0,0.58203125,-474391.099738,-5874.574885,-286074.255237,1755912.632455,-579026.768092,-709573.651501,-601265.502127,-761411.638428,-3820824.899772,-3426032.117132,-3432941.488378,-3190357.111735,-3057184.345387,-1035248.045355,-3384893.999683,-2726796.236848
150.0,0.5859375,-474400.21925,-6229.699401,-286066.208609,1755655.676801,-579054.663069,-709600.473595,-601176.452777,-761438.996963,-3820836.165051,-3426023.534062,-3432928.077332,-3190357.111735,-3057052.380687,-1035346.214216,-3384882.734404,-2726805.35636
151.0,0.58984375,-474422.749808,-6338.5971,-286124.144331,1755516.201915,-579051.980859,-709601.010037,-601323.97429,-761440.069847,-3820823.290446,-3425997.248411,-3432899.645913,-3190332.435409,-3057192.392015,-1035514.656963,-3384844.11059,-2726784.435127
152.0,0.59375,-474370.714947,-6053.210026,-286181.007168,1755671.770057,-579049.29865,-709584.380339,-601480.615316,-761440.069847,-3820797.004795,-3425990.811108,-3432885.698424,-3190294.884478,-3057342.595737,-1035333.876054,-3384820.507147,-2726767.268988
153.0,0.59765625,-474329.408923,-6065.548189,-286165.986796,1755740.434616,-579073.438534,-709597.791385,-601406.049896,-761464.746173,-3820794.322585,-3426002.61283,-3432890.526401,-3190283.082757,-3057233.161596,-1035039.90591,-3384832.84531,-2726779.070709
154.0,0.6015625,-474343.892854,-6100.953353,-286146.138447,1755504.400194,-579083.094488,-709611.738874,-601290.178453,-761474.402127,-3820789.494609,-3425974.717852,-3432863.704308,-3190268.598827,-3057077.057013,-1035083.894144,-3384811.924078,-2726768.878313
155.0,0.60546875,-474390.026854,-6249.54775,-286197.100424,1755310.74468,-579099.187744,-709633.196549,-601407.659222,-761489.422499,-3820799.687004,-3425959.69748,-3432852.97547,-3190264.307292,-3057196.147108,-1035277.549658,-3384793.685054,-2726761.904569
156.0,0.609375,-474347.111505,-5936.265699,-286259.327681,1755348.832053,-579116.890325,-709643.925386,-601587.903689,-761518.926802,-3820804.514981,-3425973.644969,-3432867.459401,-3190258.406431,-3057380.68311,-1035168.651959,-3384798.513031,-2726772.096964
157.0,0.61328125,-474261.817248,-5665.362557,-286265.228542,1755699.665034,-579106.161488,-709621.394828,-601551.425642,-761517.853918,-3820771.792027,-3425959.161038,-3432847.611052,-3190216.563966,-3057307.727016,-1034845.713955,-3384784.0291,-2726754.930825
158.0,0.6171875,-474251.088411,-5943.775886,-286236.797123,1755580.574939,-579104.552162,-709625.149921,-601416.242291,-761519.999685,-3820758.38098,-3425925.365201,-3432816.497423,-3190195.106291,-3057125.336781,-1034826.938489,-3384760.9621,-2726740.446894
159.0,0.62109375,-474300.441063,-6207.705284,-286278.639588,1755354.732913,-579131.374256,-709657.336433,-601491.880595,-761544.676011,-3820778.229329,-3425916.782131,-3432812.205888,-3190202.080035,-3057194.00134,-1035026.494864,-3384750.769705,-2726743.129104
160.0,0.625,-474272.546085,-5966.842886,-286343.012612,1755421.788147,-579133.520023,-709654.654223,-601684.463225,-761550.04043,-3820766.427608,-3425913.027038,-3432804.15926,-3190180.085919,-3057389.802622,-1034956.220979,-3384731.994239,-2726728.645173
161.0,0.62890625,-474191.006922,-5659.461696,-286360.178752,1755587.012242,-579153.904814,-709664.846619,-601693.046295,-761580.617616,-3820777.692888,-3425945.21355,-3432822.934726,-3190175.257942,-3057389.802622,-1034410.123159,-3384738.431542,-2726747.420638
162.0,0.6328125,-474171.695014,-5967.379328,-286327.99224,1755430.371217,-579138.884442,-709652.508456,-601548.206991,-761565.597244,-3820750.334352,-3425899.615991,-3432774.118516,-3190130.733267,-3057197.756433,-1034677.271208,-3384671.376308,-2726715.770568
163.0,0.63671875,-474223.729876,-6137.967841,-286355.350775,1755177.707097,-579162.487884,-709682.5492,-601576.63841,-761588.664244,-3820765.891166,-3425883.522735,-3432766.60833,-3190132.879035,-3057217.604782,-1035158.996005,-3384650.991517,-2726715.234126
164.0,0.640625,-474231.240062,-5967.379328,-286420.796683,1755110.115422,-579166.779419,-709684.158526,-601769.757482,-761598.320198,-3820759.453864,-3425877.085433,-3432762.316795,-3190117.858662,-3057414.478947,-1035199.765587,-3384635.434703,-2726702.895964
165.0,0.64453125,-474105.176223,-5689.502441,-286419.187357,1755569.846102,-579190.382861,-709697.033131,-601666.224201,-761643.381315,-3820751.407236,-3425884.059177,-3432763.92612,-3190091.573011,-3057253.009946,-1034727.160302,-3384648.309308,-2726715.770568
166.0,0.6484375,-474164.184828,-6043.017631,-286435.280613,1755310.74468,-579202.184582,-709720.100131,-601651.740271,-761653.57371,-3820754.625887,-3425854.018432,-3432740.322678,-3190082.453499,-3057212.776805,-1034895.066606,-3384624.169424,-2726703.968847
167.0,0.65234375,-474170.622131,-6002.784491,-286500.190079,1755263.001354,-579200.038815,-709721.173015,-601833.594064,-761653.037268,-3820741.214841,-3425834.170083,-3432723.156538,-3190060.995824,-3057399.995017,-1034988.407491,-3384594.665121,-2726683.584056
168.0,0.65625,-474112.149967,-5855.799419,-286536.131684,1755455.583984,-579210.23121,-709716.345038,-601922.106972,-761664.838989,-3820720.83005,-3425838.99806,-3432722.083655,-3190033.637289,-3057478.31553,-1034700.338209,-3384592.519354,-2726678.219638
169.0,0.66015625,-474068.161734,-5735.636441,-286507.700265,1755421.788147,-578414.687921,-708920.801749,-601181.817196,-760877.878771,-3819909.193505,-3425016.632678,-3431896.499621,-3189200.006628,-3056544.370239,-1034497.026741,-3383783.028577,-2725870.338186
170.0,0.6640625,-474197.980666,-5913.735141,-286539.886777,1755186.290167,-571937.152378,-702533.38844,-596014.809133,-754453.987414,-3813462.235148,-3418451.120669,-3425368.538543,-3182675.800642,-3050221.329954,-1034568.909951,-3377294.764196,-2719390.656875
171.0,0.66796875,-474228.557852,-5907.297839,-286537.204568,1755183.071516,-577463.576491,-708066.249855,-600305.271185,-759926.767341,-3819005.825401,-3423975.399014,-3430961.481447,-3188277.326617,-3055587.357949,-1034795.824861,-3382824.406961,-2724870.410546
172.0,0.671875,-474126.633898,-5485.654531,-286569.39108,1755424.470356,-579251.000792,-709801.639295,-601781.022761,-761710.436548,-3820754.089445,-3425782.671664,-3432733.885376,-3190023.444894,-3057362.980528,-1034691.218697,-3384592.519354,-2726644.960242
173.0,0.67578125,-474028.465036,-5392.313646,-286554.90715,1755449.146682,-579259.04742,-709786.082481,-601650.667387,-761734.03999,-3820729.949561,-3425784.28099,-3432711.354817,-3189984.821079,-3057181.126735,-1034435.335926,-3384578.035424,-2726651.397544
174.0,0.6796875,-474024.709943,-5751.729697,-286546.32408,1755195.409679,-579261.729629,-709788.76469,-601545.524781,-761741.013734,-3820720.83005,-3425754.776687,-3432671.121677,-3189957.998986,-3057028.777245,-1034522.239509,-3384539.411609,-2726640.132265
175.0,0.68359375,-474059.578664,-5884.230838,-286605.332685,1755039.841537,-579277.822885,-709805.93083,-601681.781016,-761758.179874,-3820727.267352,-3425747.266501,-3432662.002166,-3189947.806591,-3057161.278386,-1034698.192441,-3384516.881051,-2726638.52294
176.0,0.6875,-474000.033617,-5520.523253,-286662.731965,1755188.435935,-579294.989025,-709809.685923,-601838.958483,-761783.929084,-3820719.220724,-3425763.359757,-3432669.512352,-3189933.32266,-3057316.846528,-1034532.968346,-3384517.417493,-2726646.569568
177.0,0.69140625,-473920.103779,-5320.966878,-286656.831104,1755274.803075,-579288.551723,-709789.837574,-601769.757482,-761786.074851,-3820688.107096,-3425749.412268,-3432646.981793,-3189893.625962,-3057208.485271,-1034231.488017,-3384500.787795,-2726633.158521
178.0,0.6953125,-473921.713104,-5644.441324,-286638.592081,1755046.815282,-579314.300932,-709818.268993,-601648.52162,-761811.287619,-3820703.66391,-3425739.219873,-3432638.398723,-3189896.308171,-3057048.089152,-1034262.601645,-3384498.642027,-2726642.278033
179.0,0.69921875,-473956.581826,-5859.554512,-286690.626942,1754801.661349,-579313.76449,-709827.388504,-601756.882877,-761813.433386,-3820699.372375,-3425710.788454,-3432612.649514,-3189878.60559,-3057153.7682,-1034459.47581,-3384465.382631,-2726624.039009
180.0,0.703125,-473922.785988,-5628.348068,-286754.463524,1754927.188745,-579315.373816,-709824.169853,-601939.273112,-761824.698666,-3820685.961328,-3425711.324896,-3432609.967304,-3189857.684357,-3057347.960156,-1034315.172948,-3384450.898701,-2726614.383055
181.0,0.70703125,-473883.625732,-5558.074183,-286754.999966,1755329.520146,-579328.248421,-709823.096969,-601912.98746,-761837.036829,-3820680.59691,-3425720.980849,-3432606.212211,-3189830.325822,-3057306.654132,-1033778.194639,-3384432.123236,-2726612.77373
182.0,0.7109375,-473870.214685,-5539.298718,-286721.74057,1755156.785864,-579336.831491,-709833.289365,-601771.903249,-761847.765666,-3820678.451142,-3425698.986733,-3432584.218095,-3189814.232566,-3057128.018991,-1034170.870086,-3384383.843468,-2726608.482195
183.0,0.71484375,-473904.546965,-5754.411907,-286760.900827,1754919.678559,-579375.455305,-709882.105575,-601837.885599,-761889.07169,-3820713.856305,-3425705.424035,-3432599.238467,-3189838.908892,-3057194.00134,-1034661.177952,-3384384.916351,-2726628.866986
184.0,0.71875,-473906.692732,-5538.225834,-286828.492502,1754970.104095,-579417.834213,-709918.583622,-602029.395345,-761932.523481,-3820737.459747,-3425737.074105,-3432628.206328,-3189852.85638,-3057397.84925,-1034648.303348,-3384403.691817,-2726651.933986
185.0,0.72265625,-473848.757011,-5178.273341,-286849.950176,1755139.083283,-579419.97998,-709908.391226,-602045.488601,-761943.78876,-3820718.14784,-3425740.292757,-3432621.769026,-3189826.034287,-3057395.703482,-1034316.245832,-3384402.082491,-2726646.569568
186.0,0.7265625,-473803.695894,-5367.63732,-286822.591641,1754991.561769,-579435.536794,-709925.020924,-601895.821321,-761963.637109,-3820719.757166,-3425726.88171,-3432608.894421,-3189816.378333,-3057199.902201,-1034220.75918,-3384400.473166,-2726649.251777
187.0,0.73046875,-473862.704499,-5703.449929,-286853.168828,1754641.26523,-579453.775818,-709951.843018,-601912.98746,-761982.412575,-3820733.704654,-3425709.179128,-3432596.019816,-3189818.524101,-3057203.657294,-1034412.805368,-3384385.452793,-2726643.887358
188.0,0.734375,-473862.168057,-5578.995416,-286921.833387,1754804.88,-579456.994469,-709958.28032,-602104.497207,-761996.896505,-3820732.095329,-3425703.81471,-3432594.946932,-3189805.649496,-3057399.995017,-1034465.376671,-3384371.505305,-2726637.986498
189.0,0.73828125,-473792.967056,-5324.721971,-286955.629224,1755249.053866,-579426.953724,-709914.828529,-602166.188021,-761972.220179,-3820676.841817,-3425674.310407,-3432556.85956,-3189742.885797,-3057437.545948,-1034153.167504,-3384336.100142,-2726598.289799
190.0,0.7421875,-473750.588149,-5436.301879,-286922.369829,1755163.759609,-579421.052864,-709906.245459,-602022.421601,-761968.465086,-3820651.092607,-3425640.514569,-3432521.990838,-3189705.871309,-3057244.963318,-1033995.453596,-3384310.887374,-2726576.832125
191.0,0.74609375,-473779.019568,-5590.260695,-286934.707991,1754890.710698,-579433.391027,-709929.312459,-601996.13595,-761978.657482,-3820660.212119,-3425613.692476,-3432500.533164,-3189700.50689,-3057201.511526,-1034164.969226,-3384289.429699,-2726565.566846
192.0,0.75,-473784.920428,-5555.928416,-287004.981876,1754826.874116,-579447.874957,-709945.942157,-602173.698208,-761994.750738,-3820665.040095,-3425608.328057,-3432499.46028,-3189696.215355,-3057391.948389,-1034278.158459,-3384276.555094,-2726560.738869
193.0,0.75390625,-473715.182986,-5139.649527,-287050.579435,1755018.920305,-579440.901213,-709926.093808,-602268.111976,-761996.360063,-3820634.462909,-3425601.354313,-3432490.340768,-3189659.737308,-3057479.388413,-1034002.963782,-3384262.071164,-2726546.79138
194.0,0.7578125,-473677.632055,-5128.92069,-287031.803969,1754991.561769,-579452.166492,-709931.458227,-602137.756602,-762010.843994,-3820625.343397,-3425591.698359,-3432480.684815,-3189640.961843,-3057316.310086,-1033786.777709,-3384259.925396,-2726546.254938
195.0,0.76171875,-473760.244103,-5520.523253,-287055.943853,1754748.553604,-575930.425636,-706450.486952,-599321.973243,-758519.143882,-3817111.112727,-3422012.021781,-3428907.445539,-3186075.232753,-3053842.312556,-1033911.768664,-3380712.43533,-2723015.931012
196.0,0.765625,-473902.937639,-5621.374324,-287116.561784,1754686.862789,-573095.330369,-703701.222384,-597096.812379,-755703.896964,-3814315.714159,-3419114.699258,-3426085.761319,-3183249.79344,-3051216.429617,-1034030.322317,-3377885.386692,-2720161.523838
197.0,0.76953125,-473794.576382,-5161.107202,-287108.515156,1754939.526908,-579353.99763,-709906.781901,-602030.468229,-761917.503109,-3820552.923745,-3425413.59966,-3432394.317674,-3189543.329423,-3057283.587132,-1033964.876409,-3384151.027697,-2726385.85882
198.0,0.7734375,-473689.433776,-5044.162875,-287096.713435,1754988.343118,-579489.717423,-710010.315181,-602009.546996,-762069.316157,-3820654.8477,-3425549.319452,-3432491.950094,-3189626.477912,-3057231.552271,-1033730.987755,-3384261.534722,-2726523.72438
199.0,0.77734375,-473673.34052,-5406.261135,-287088.130365,1754731.387464,-579498.836934,-710013.533832,-601891.529786,-762083.800087,-3820647.873956,-3425527.861777,-3432455.472047,-3189599.655819,-3057064.71885,-1033811.990477,-3384228.811768,-2726521.042171
200.0,0.78125,-473695.871078,-5571.48523,-287148.748296,1754559.189625,-579540.142958,-710052.694089,-602021.348717,-762126.715437,-3820675.232491,-3425543.955033,-3432466.200884,-3189615.749075,-3057185.41827,-1034006.718875,-3384228.811768,-2726545.182055
201.0,0.78515625,-473647.054869,-5295.75411,-287210.975553,1754692.76365,-579537.460749,-710036.600833,-602186.572812,-762129.397646,-3820649.483281,-3425539.127056,-3432452.253396,-3189579.271028,-3057344.205063,-1033813.599803,-3384202.526117,-2726531.234566
202.0,0.7890625,-473598.775101,-5287.17104,-287208.829785,1754766.256185,-579562.137075,-710046.793228,-602124.881998,-762155.683298,-3820649.483281,-3425557.36608,-3432452.253396,-3189562.64133,-3057260.520132,-1033327.583471,-3384189.651512,-2726542.499845
203.0,0.79296875,-473618.62345,-5333.305041,-287183.080576,1754481.941996,-579591.104936,-710077.906856,-601994.526624,-762186.796926,-3820669.868072,-3425555.756754,-3432444.743209,-3189563.177772,-3057095.296037,-1033785.168384,-3384163.36586,-2726553.765125
204.0,0.796875,-473662.611683,-5518.377485,-287235.115437,1754550.606555,-579577.693889,-710075.224647,-602094.304811,-762177.677414,-3820652.165491,-3425514.450731,-3432408.265162,-3189534.746353,-3057186.491154,-1034188.036226,-3384114.013209,-2726523.187938
205.0,0.80078125,-473628.815845,-5245.865017,-287304.316438,1754692.76365,-579597.542238,-710088.635694,-602282.595907,-762203.426624,-3820656.993467,-3425530.543987,-3432421.139767,-3189531.527702,-3057386.58397,-1034123.12676,-3384116.695418,-2726530.698124
206.0,0.8046875,-473553.177542,-4941.166036,-287319.873252,1754832.238535,-579585.740517,-710062.886484,-602265.966209,-762199.671531,-3820625.343397,-3425517.669382,-3432401.291418,-3189488.075911,-3057350.642365,-1033799.652314,-3384098.992836,-2726514.604868
207.0,0.80859375,-473545.130914,-5201.876784,-287296.26981,1754641.801672,-579605.052424,-710084.880601,-602120.590463,-762223.274973,-3820632.317142,-3425503.721893,-3432390.562581,-3189481.638608,-3057168.252131,-1033759.419174,-3384095.774185,-2726518.359961
208.0,0.8125,-473591.264914,-5510.867299,-287338.648717,1754393.96553,-579634.556727,-710123.504415,-602174.771091,-762251.706392,-3820653.238374,-3425496.748149,-3432388.953255,-3189493.976771,-3057224.042085,-1033967.022177,-3384090.946208,-2726526.406589
209.0,0.81640625,-473576.244542,-5324.721971,-287409.995486,1754424.542716,-579639.921145,-710128.332392,-602367.890163,-762264.580997,-3820646.801072,-3425493.529498,-3432383.588837,-3189477.347073,-3057430.035762,-1033977.751014,-3384077.535162,-2726518.359961
210.0,0.8203125,-473501.679123,-4960.477943,-287437.890463,1754595.13123,-579623.291448,-710095.609438,-602394.712257,-762254.925043,-3820609.786583,-3425476.8998,-3432361.058278,-3189429.067305,-3057440.764599,-1033658.031661,-3384056.613929,-2726494.220077
211.0,0.82421875,-473479.148564,-5140.722411,-287413.214137,1754458.338554,-579646.358448,-710115.994229,-602246.654301,-762279.601369,-3820617.296769,-3425470.998939,-3432354.620976,-3189426.921538,-3057254.082829,-1033555.034823,-3384060.369022,-2726502.803147
212.0,0.828125,-473531.183425,-5500.674903,-287443.791323,1754147.738713,-579656.014401,-710139.597671,-602255.237371,-762289.793764,-3820620.51542,-3425442.031079,-3432330.481092,-3189419.947793,-3057253.546387,-1033749.226779,-3384035.692696,-2726491.001426
213.0,0.83203125,-473533.329193,-5431.473903,-287516.210975,1754072.636851,-579676.399192,-710162.664671,-602444.064909,-762319.834509,-3820634.999351,-3425450.077707,-3432342.282813,-3189421.020677,-3057455.248529,-1033828.620175,-3384036.76558,-2726497.97517
214.0,0.8359375,-473493.632495,-5282.879506,-287552.689022,1754610.688044,-579680.154285,-710154.618043,-602513.265909,-762326.271811,-3820607.104374,-3425446.322614,-3432335.84551,-3189386.688398,-3057510.502042,-1033536.259357,-3384028.18251,-2726484.027682
215.0,0.83984375,-473480.75789,-5232.45397,-287524.794045,1754587.621044,-579669.425448,-710137.988345,-602373.254582,-762313.933648,-3820576.527187,-3425406.625915,-3432295.075929,-3189344.30949,-3057327.038923,-1033376.399681,-3383996.53244,-2726455.596263
216.0,0.84375,-473511.335076,-5433.083228,-287539.277975,1754305.452622,-579693.02889,-710172.320625,-602336.240093,-762339.146416,-3820598.521304,-3425394.287752,-3432288.638626,-3189352.89256,-3057269.639643,-1033543.769544,-3383990.095137,-2726461.497123
217.0,0.84765625,-473526.355449,-5445.421391,-287610.624744,1754219.621923,-579701.075518,-710185.731672,-602513.265909,-762349.875253,-3820596.375536,-3425383.022473,-3432278.982673,-3189339.481513,-3057450.956994,-1033675.734243,-3383969.710346,-2726450.768286
218.0,0.8515625,-473463.055308,-5047.381526,-287659.440954,1754396.111297,-579731.652705,-710204.507137,-602622.163608,-762390.108393,-3820606.567932,-3425415.745427,-3432306.341208,-3189343.236607,-3057558.245368,-1033405.367542,-3383995.995998,-2726474.371728
219.0,0.85546875,-473416.921308,-5025.923851,-287644.957023,1754378.945157,-579744.527309,-710210.407997,-602502.00063,-762408.883859,-3820608.177258,-3425417.891195,-3432299.367464,-3189330.362002,-3057412.869622,-1032997.135281,-3383984.730719,-2726475.981054
220.0,0.859375,-473466.810401,-5418.062856,-287650.321442,1754105.359805,-579348.633212,-709824.706295,-602125.41844,-762015.135528,-3820209.60095,-3424983.373282,-3431865.922435,-3188910.864462,-3056935.43636,-1033434.871845,-3383533.046667,-2726061.311491
221.0,0.86328125,-473609.503938,-5567.730137,-287753.31828,1754006.11806,-572698.363387,-703253.293425,-597033.512239,-755415.827682,-3813577.57015,-3418254.246504,-3425167.909285,-3182202.658916,-3050675.159773,-1033858.66092,-3376861.85561,-2719406.750131
222.0,0.8671875,-473583.218286,-5169.15383,-287752.245397,1754240.543156,-577103.623999,-707668.746432,-600454.938466,-759787.292455,-3817998.924017,-3422667.017301,-3429654.172618,-3186671.219667,-3054972.595569,-1033674.124917,-3381303.057826,-2723778.751347
223.0,0.87109375,-473463.055308,-5013.585688,-287722.741094,1754377.335832,-579769.740077,-710283.900533,-602395.78514,-762443.216138,-3820628.562049,-3425350.835961,-3432305.804766,-3189311.050094,-3057343.668621,-1033420.924356,-3383959.517951,-2726434.67503
224.0,0.875,-473441.597634,-5383.194135,-287714.158024,1754117.161526,-579786.906217,-710292.483603,-602256.846697,-762470.574673,-3820625.879839,-3425339.03424,-3432272.008928,-3189286.91021,-3057152.158875,-1033497.635543,-3383936.450951,-2726442.185216
225.0,0.87890625,-473468.419727,-5580.0683,-287773.703071,1753924.578896,-579788.515543,-710291.947161,-602371.645256,-762477.011976,-3820614.61456,-3425316.503682,-3432239.285974,-3189260.088117,-3057250.327736,-1033705.774987,-3383894.072043,-2726426.628402
226.0,0.8828125,-473421.212843,-5263.567598,-287839.685421,1754039.377456,-579780.468915,-710264.588626,-602540.624445,-762472.720441,-3820582.428048,-3425305.238403,-3432215.14609,-3189215.563442,-3057408.578087,-1033595.267963,-3383857.593996,-2726405.170727
227.0,0.88671875,-473345.038098,-5037.725572,-287846.659165,1754137.009875,-579770.812961,-710240.985184,-602492.881118,-762472.183999,-3820548.095768,-3425290.754472,-3432188.323997,-3189168.356558,-3057322.747388,-1033296.469843,-3383834.526996,-2726388.004588
228.0,0.890625,-473358.985586,-5360.127134,-287830.029467,1753909.022082,-579789.588426,-710264.588626,-602360.379977,-762492.56879,-3820555.605955,-3425274.661216,-3432172.230741,-3189163.528581,-3057149.476665,-1033311.490215,-3383825.407484,-2726391.759681
229.0,0.89453125,-473409.947563,-5632.103161,-287879.918561,1753678.888521,-579793.343519,-710275.853905,-602446.210676,-762495.250999,-3820553.460187,-3425245.156913,-3432146.481531,-3189147.971767,-3057232.088713,-1033525.53052,-3383793.220972,-2726372.447774
230.0,0.8984375,-473387.953447,-5435.228996,-287950.728887,1753671.378335,-579801.926589,-710277.999673,-602637.183981,-762510.807814,-3820544.877117,-3425245.693355,-3432145.94509,-3189131.878511,-3057430.572203,-1033487.979589,-3383780.346367,-2726369.765564
231.0,0.90234375,-473338.600795,-5360.127134,-287966.822143,1753897.756803,-579823.384264,-710287.655626,-602631.819562,-762539.775674,-3820538.439815,-3425260.177286,-3432156.137485,-3189117.931022,-3057408.041645,-1033174.161097,-3383793.220972,-2726382.103727
232.0,0.90625,-473323.043981,-5366.564437,-287939.463608,1753983.587501,-579834.649543,-710305.89465,-602485.370932,-762556.941814,-3820539.512699,-3425244.08403,-3432137.36202,-3189106.129301,-3057220.286992,-1033125.881329,-3383787.320112,-2726381.567285
233.0,0.91015625,-473366.495772,-5609.572602,-287979.160306,1753732.532708,-579867.372497,-710346.12779,-602530.432049,-762590.737652,-3820567.944118,-3425244.08403,-3432141.653555,-3189120.613232,-3057259.447248,-1033341.53096,-3383786.247228,-2726392.832564
234.0,0.9140625,-473377.761051,-5455.077345,-288051.043517,1753742.188661,-579877.028451,-710350.419325,-602724.624005,-762599.857163,-3820559.89749,-3425238.183169,-3432133.606927,-3189102.91065,-3057461.14939,-1033372.644588,-3383768.544646,-2726383.176611
235.0,0.91796875,-473318.216004,-5088.68755,-288081.620703,1753911.167849,-579864.690288,-710325.742999,-602763.247819,-762595.565628,-3820524.492326,-3425222.626355,-3432115.367903,-3189061.068185,-3057479.388413,-1033063.117631,-3383750.305623,-2726364.401146
236.0,0.921875,-473267.790469,-5254.448087,-288056.407935,1753781.88536,-579871.664032,-710330.570976,-602617.335632,-762607.903791,-3820519.66435,-3425203.314448,-3432098.201763,-3189045.51137,-3057288.951551,-1032952.074164,-3383743.331879,-2726361.182494
237.0,0.92578125,-473318.216004,-5629.420952,-288082.157145,1753499.180496,-579874.346241,-710341.299813,-602615.726306,-762608.440233,-3820514.836373,-3425166.836401,-3432064.942368,-3189028.345231,-3057269.639643,-1033148.411888,-3383709.536041,-2726337.04261
238.0,0.9296875,-473352.011842,-5572.021672,-288154.040355,1753450.364286,-579885.61152,-710356.320185,-602798.116541,-762622.924164,-3820516.98214,-3425161.471982,-3432057.968623,-3189017.079951,-3057464.368041,-1033246.044307,-3383694.515669,-2726329.532424
239.0,0.93359375,-473290.321027,-5180.419109,-288195.882821,1753572.13659,-579882.929311,-710339.154045,-602876.973495,-762629.897908,-3820498.206675,-3425164.690633,-3432054.21353,-3188984.893439,-3057539.469902,-1032823.328116,-3383680.56818,-2726320.412912
240.0,0.9375,-473233.994631,-5249.083668,-288176.570913,1753561.407752,-579890.439497,-710345.054906,-602738.035052,-762649.746257,-3820499.816,-3425159.862657,-3432044.557577,-3188971.482393,-3057371.563598,-1032657.031138,-3383652.136761,-2726323.095122
241.0,0.94140625,-473287.102376,-5641.222673,-288190.518402,1753522.783938,-579893.658148,-710357.929511,-602690.828167,-762651.355583,-3820494.451582,-3425123.921051,-3432012.907507,-3188953.243369,-3057296.998179,-1033300.224936,-3383603.320551,-2726302.710331
242.0,0.9453125,-473325.189748,-5678.773603,-288257.573635,1753429.443053,-579915.115823,-710383.67872,-602858.734472,-762674.959025,-3820506.789745,-3425122.848168,-3432013.98039,-3188953.779811,-3057469.196018,-1033515.338125,-3383594.737481,-2726304.319656
243.0,0.94921875,-473275.837097,-5432.010345,-288309.072055,1753596.812915,-579936.037056,-710392.798232,-602971.923706,-762702.31756,-3820507.326187,-3425143.232959,-3432030.610088,-3188946.806067,-3057585.067461,-1033286.277447,-3383607.612086,-2726315.048494
244.0,0.953125,-473233.994631,-5422.890833,-288290.833031,1753587.693404,-579933.354847,-710381.532953,-602858.734472,-762699.098909,-3820482.113419,-3425118.020191,-3432002.715111,-3188911.400904,-3057431.108645,-1033059.89898,-3383587.227295,-2726297.345912
245.0,0.95703125,-473252.233655,-5589.724253,-288288.687264,1753312.498726,-579965.541359,-710421.229651,-602764.320703,-762732.894746,-3820508.39907,-3425114.265098,-3432004.324437,-3188922.129741,-3057316.846528,-1033177.91619,-3383592.591714,-2726313.97561
246.0,0.9609375,-473317.14312,-5732.954232,-288368.08066,1753174.096724,-577395.984816,-707879.568086,-600889.456378,-760187.478088,-3817935.623877,-3422503.938973,-3429395.071196,-3186312.8765,-3054970.449802,-1033378.545449,-3380993.530869,-2723730.471579
247.0,0.96484375,-473399.755168,-5440.056973,-288438.890986,1753345.758122,-572876.998529,-703438.365869,-597381.126568,-755708.188499,-3813438.095264,-3417928.089849,-3424880.912886,-3181766.531678,-3050722.903099,-1033225.123075,-3376490.637838,-2719204.511548
248.0,0.96875,-473298.367655,-5214.751388,-288368.08066,1753542.632287,-579545.507377,-710062.886484,-602431.726746,-762323.589602,-3820099.093926,-3424627.712325,-3431608.430339,-3188490.294038,-3056991.226314,-1032986.942886,-3383179.531476,-2725840.297442
249.0,0.97265625,-473267.790469,-5560.756393,-288353.060288,1753325.909773,-579976.270196,-710473.800954,-602600.705934,-762762.399049,-3820505.180419,-3425040.23612,-3431989.304064,-3188880.823717,-3057189.709805,-1033065.263398,-3383574.352691,-2726263.013633
250.0,0.9765625,-473295.149004,-5783.916209,-288410.996009,1753120.452538,-580004.165173,-710497.940838,-602692.973935,-762798.340654,-3820517.518582,-3425042.91833,-3431978.038785,-3188875.459299,-3057273.394736,-1033285.204564,-3383554.504341,-2726275.351796
251.0,0.98046875,-473254.915864,-5494.237601,-288480.19701,1753218.084957,-580007.383824,-710487.212001,-602861.953123,-762807.996608,-3820495.524466,-3425041.845446,-3431963.554855,-3188841.663461,-3057435.40018,-1033199.910307,-3383528.21869,-2726266.768726
252.0,0.984375,-473183.032654,-5251.229435,-288489.852964,1753323.764005,-579982.707498,-710445.905977,-602822.792867,-762788.684701,-3820445.635372,-3425013.414027,-3431920.103064,-3188777.290437,-3057354.9339,-1032900.039303,-3383488.521992,-2726235.118656
253.0,0.98828125,-473178.204677,-5560.219951,-288472.150382,1753104.895723,-580000.946522,-710461.462791,-602683.854423,-762807.996608,-3820450.463349,-3424997.320771,-3431901.86404,-3188767.098041,-3057172.007224,-1032905.940164,-3383477.793154,-2726237.800865
254.0,0.9921875,-473245.796352,-5854.726536,-288523.112359,1752862.424,-580022.940638,-710492.576419,-602763.247819,-762830.527166,-3820465.483721,-3424984.982608,-3431894.353854,-3188769.780251,-3057244.426876,-1033135.000841,-3383461.699898,-2726239.946632
255.0,0.99609375,-473233.994631,-5644.441324,-288596.068453,1752828.628162,-580042.252546,-710504.914582,-602954.757566,-762858.958585,-3820468.702372,-3424996.784329,-3431902.400482,-3188764.415832,-3057441.837483,-1033123.735562,-3383459.017689,-2726245.311051
0.0,1.0,0.0,0.0,0.0,0.0,0.0,0.0,0.0,0.0,0.0,0.0,0.0,0.0,0.0,0.0,0.0,0.0
1.0,1.00390625,-262675.197443,86515.734972,-1630518.273177,30030.552152,-1508926.750294,-1890120.731607,-2298028.445009,-2547501.808107,-3510597.885918,-2468817.051508,-2474461.492832,-2441377.513573,-2446561.687775,23704.293216,-2543326.681057,-2525069.955
2.0,1.0078125,-262862.415655,86407.910157,-1630706.564272,30017.677548,-1508946.598643,-1890147.017258,-2298367.476269,-2547511.464061,-3510604.323221,-2468820.270159,-2474472.758111,-2441385.023759,-2446501.069844,23398.521352,-2543322.925964,-2525078.001628
3.0,1.01171875,-262860.269887,86326.907435,-1630767.182203,30133.012549,-1508932.114712,-1890124.4867,-2298449.015432,-2547484.105526,-3510578.574011,-2468801.494694,-2474451.300436,-2441352.837247,-2446679.704986,23476.305422,-2543301.468289,-2525046.887999
4.0,1.015625,-262640.328722,86735.676138,-1630653.992969,30194.703364,-1508925.140968,-1890110.539211,-2298173.820755,-2547475.522456,-3510565.162964,-2468797.739601,-2474441.108041,-2441345.327061,-2446836.346011,23809.972264,-2543310.051359,-2525040.987139
5.0,1.01953125,-262597.413373,86737.821905,-1630671.695551,30114.773526,-1508926.213852,-1890116.440072,-2298122.322336,-2547475.522456,-3510564.090081,-2468788.620089,-2474435.743622,-2441347.472828,-2446781.62894,23819.091775,-2543314.342894,-2525041.523581
6.0,1.0234375,-262766.392561,86678.8133,-1630849.794251,30052.546269,-1508949.280852,-1890145.407932,-2298433.99506,-2547489.469944,-3510585.011314,-2468796.130275,-2474449.154669,-2441365.17541,-2446701.16266,23668.351611,-2543312.197126,-2525054.398186
7.0,1.02734375,-260849.149328,84901.581395,-1623897.507655,28622.392252,-1499154.925246,-1880430.445722,-2291513.894977,-2537827.079037,-3501028.835896,-2459066.684135,-2464744.384854,-2431634.656386,-2437002.830148,22399.666595,-2533632.103638,-2515402.199674
8.0,1.03125,-259732.277361,83939.204686,-1619984.700678,27874.055847,-1495375.155851,-1876783.177469,-2287520.621719,-2534136.358993,-3497522.651854,-2455312.66395,-2461140.568392,-2428025.475505,-2430764.011236,22111.060871,-2530088.905107,-2511840.225678
9.0,1.03515625,-262618.334605,86872.468814,-1629062.36995,30193.63048,-1508880.616293,-1890209.244515,-2296611.702038,-2547405.785013,-3510642.947035,-2468693.133437,-2474513.527693,-2441425.793341,-2443603.210879,23990.216731,-2543405.538011,-2525142.374652
10.0,1.0390625,-262758.345933,86817.215302,-1629223.30251,30152.324456,-1508980.930922,-1890274.690422,-2296982.91981,-2547505.5632,-3510693.909013,-2468792.375182,-2474566.635438,-2441480.510411,-2444671.266636,23703.756774,-2543437.188081,-2525194.945955
11.0,1.04296875,-262808.771468,87007.115723,-1629378.33421,30232.254294,-1508965.91055,-1890234.993724,-2297268.306883,-2547489.469944,-3510644.019919,-2468790.229415,-2474525.865856,-2441435.449295,-2445180.886409,23616.31675,-2543381.934569,-2525144.520419
12.0,1.046875,-262582.393,87166.975399,-1629403.010536,30346.516412,-1508960.546131,-1890202.807212,-2297135.805742,-2547490.542828,-3510618.807151,-2468803.640461,-2474508.163274,-2441405.944992,-2445833.736161,23928.525916,-2543377.643034,-2525120.380535
13.0,1.05078125,-262411.804487,87061.296351,-1629441.097908,30315.939226,-1508966.446992,-1890193.6877,-2297028.517369,-2547499.125898,-3510619.880035,-2468810.614206,-2474501.725972,-2441398.971248,-2446167.939445,24103.942407,-2543382.471011,-2525112.333907
14.0,1.0546875,-262520.165744,86940.060489,-1629672.840795,30229.035643,-1508973.420736,-1890200.661445,-2297334.825675,-2547501.271665,-3510615.5885,-2468806.322671,-2474494.752228,-2441402.189899,-2446329.944888,23858.252032,-2543364.768429,-2525103.750837
15.0,1.05859375,-262621.016815,87100.993049,-1629927.650681,30288.044249,-1508957.863922,-1890179.20377,-2297679.221353,-2547477.668223,-3510583.93843,-2468790.229415,-2474472.758111,-2441371.07627,-2446422.212889,23709.657634,-2543330.972592,-2525071.564325
16.0,1.0625,-262437.553696,87308.05961,-1630010.262729,30377.63004,-1508949.280852,-1890157.746095,-2297602.510166,-2547469.085153,-3510567.308732,-2468795.593833,-2474460.95639,-2441351.227921,-2446565.97931,24107.161058,-2543328.826824,-2525056.007511
17.0,1.06640625,-262234.778671,87248.514563,-1630024.210218,30207.041527,-1508965.91055,-1890175.448677,-2297417.437722,-2547496.443688,-3510595.740151,-2468818.660834,-2474478.658972,-2441372.149154,-2446829.372266,24308.326758,-2543356.721801,-2525076.392302
18.0,1.0703125,-262314.172067,87102.065933,-1630214.64708,30329.350272,-1508977.175829,-1890192.614817,-2297629.868702,-2547509.318293,-3510604.859663,-2468823.48881,-2474484.559832,-2441390.92462,-2446802.550173,24058.88129,-2543361.013336,-2525088.730465
19.0,1.07421875,-262453.646952,87210.42719,-1630463.019665,30407.670785,-1508971.81141,-1890187.78684,-2297990.357636,-2547495.907247,-3510583.93843,-2468813.296415,-2474471.685227,-2441374.831364,-2446718.3288,23846.450311,-2543336.33701,-2525071.564325
20.0,1.078125,-262328.655997,87443.24296,-1630550.459689,30543.390577,-1508959.473247,-1890162.574072,-2297970.509287,-2547482.4962,-3510565.162964,-2468812.223531,-2474458.810623,-2441349.618596,-2446784.847592,24192.455315,-2543328.290382,-2525053.325302
21.0,1.08203125,-262080.819855,87424.467495,-1630522.564712,30566.994019,-1508950.353736,-1890148.626584,-2297737.157075,-2547474.986014,-3510576.964686,-2468809.541322,-2474451.300436,-2441341.035526,-2447071.84399,24538.996761,-2543327.753941,-2525046.887999
22.0,1.0859375,-262125.880972,87264.071377,-1630643.800574,30476.871786,-1508985.222457,-1890189.932607,-2297858.929379,-2547505.5632,-3510605.932546,-2468829.389671,-2474484.02339,-2441378.586457,-2447145.336526,24264.874967,-2543350.284499,-2525076.928744
23.0,1.08984375,-262294.323718,87313.424029,-1630861.595972,30473.116693,-1508993.805527,-1890201.734328,-2298224.782732,-2547504.490316,-3510602.177453,-2468827.243904,-2474486.169158,-2441381.268666,-2447033.756618,23999.336243,-2543338.482778,-2525076.928744
24.0,1.09375,-262227.268485,87558.04152,-1630935.624949,30608.300043,-1508980.930922,-1890180.276654,-2298261.797221,-2547486.787735,-3510575.891802,-2468819.197276,-2474472.758111,-2441361.420317,-2447105.103386,24156.51371,-2543332.045475,-2525059.762604
25.0,1.09765625,-261980.505226,87587.545823,-1630866.96039,30658.725579,-1508987.904666,-1890180.813096,-2297998.404264,-2547498.589456,-3510586.084197,-2468831.535438,-2474480.804739,-2441368.930503,-2447277.837667,24492.86276,-2543361.013336,-2525071.564325
26.0,1.1015625,-261968.703505,87422.321728,-1630943.671577,30577.722857,-1508939.624898,-1890136.288421,-2298033.809427,-2547445.481711,-3510542.095964,-2468771.990391,-2474426.087669,-2441320.650735,-2447236.531643,24445.119434,-2543313.806452,-2525020.602348
27.0,1.10546875,-262137.146251,87337.027471,-1631141.082184,30455.950553,-1508956.791038,-1890159.891863,-2298371.767804,-2547454.064781,-3510554.434127,-2468780.037019,-2474435.20718,-2441333.52534,-2447123.878851,24256.291897,-2543310.051359,-2525029.72186
28.0,1.109375,-262129.099623,87281.237517,-1631211.892511,30535.880391,-1508994.341969,-1890199.052119,-2298475.837526,-2547490.542828,-3510583.93843,-2468828.316787,-2474475.44032,-2441362.493201,-2447202.199364,24432.781271,-2543333.654801,-2525063.517697
29.0,1.11328125,-261907.01269,87706.099475,-1631113.723649,30772.987696,-1509003.997922,-1890202.807212,-2298212.981011,-2547500.198782,-3510593.594383,-2468844.946485,-2474482.414065,-2441366.248294,-2447377.615854,24607.124878,-2543356.18536,-2525071.027883
30.0,1.1171875,-261863.560899,87723.265615,-1631130.889789,30708.07823,-1509015.799643,-1890217.291143,-2298159.336824,-2547509.854735,-3510605.396105,-2468843.873601,-2474485.632716,-2441383.950875,-2447386.198924,24636.629181,-2543371.742174,-2525079.610953
31.0,1.12109375,-262024.493459,87668.548544,-1631304.696954,30649.069625,-1509016.336085,-1890223.728445,-2298475.837526,-2547500.198782,-3510597.885918,-2468827.243904,-2474477.586088,-2441379.122898,-2447274.082574,24349.632782,-2543352.966708,-2525070.491442
32.0,1.125,-261775.584433,87593.983125,-1630306.37864,30526.760879,-1507439.733438,-1888654.099542,-2297547.793096,-2545935.934298,-3509041.131621,-2467259.224327,-2472908.493627,-2439795.010065,-2445818.179347,24150.612849,-2541785.483573,-2523504.08119
33.0,1.12890625,-258239.359646,84258.924038,-1618527.188126,27956.667895,-1491834.63953,-1873210.474635,-2285712.276186,-2530582.431624,-3493921.517601,-2451766.78321,-2457504.028976,-2424366.405531,-2429453.483755,22457.602317,-2526483.479319,-2508204.759145
34.0,1.1328125,-260784.239862,86731.384603,-1626249.805242,29924.873105,-1504231.274632,-1885619.984343,-2293409.680535,-2542783.265446,-3506103.575957,-2464040.573125,-2469890.471684,-2436786.644076,-2439278.416548,24285.259758,-2538835.589747,-2520532.729689
35.0,1.13671875,-262008.400203,87825.18957,-1629649.773794,30761.185975,-1509069.44383,-1890394.853401,-2297027.444485,-2547528.093759,-3510748.626083,-2468834.75409,-2474635.299997,-2441539.519017,-2444945.924872,24584.057878,-2543533.747617,-2525251.808793
36.0,1.140625,-262060.971506,88001.142502,-1629763.49947,30835.214953,-1509070.516714,-1890361.057563,-2297303.712047,-2547532.385294,-3510707.320059,-2468849.774462,-2474605.795694,-2441497.140109,-2445703.91723,24479.451713,-2543486.540733,-2525214.794304
37.0,1.14453125,-261848.540526,88155.101318,-1629783.347819,30946.794861,-1509056.569225,-1890315.996446,-2297200.715208,-2547523.265782,-3510664.40471,-2468850.310904,-2474570.390531,-2441452.615434,-2446270.936283,24779.859159,-2543461.864407,-2525173.48828
38.0,1.1484375,-261696.191036,88040.302758,-1629842.892866,30911.92614,-1509035.647993,-1890277.372632,-2297098.254812,-2547503.953875,-3510635.973291,-2468829.389671,-2474529.620949,-2441416.673829,-2446704.917753,24961.17651,-2543434.505872,-2525132.182256
39.0,1.15234375,-261808.843828,87895.999896,-1630092.338335,30814.830162,-1509038.866644,-1890277.909074,-2297409.927536,-2547500.198782,-3510628.999547,-2468820.270159,-2474517.282786,-2441411.30941,-2446802.550173,24712.803926,-2543414.657523,-2525116.089
40.0,1.15625,-261932.7619,88025.818828,-1630363.241477,30858.818395,-1509051.741249,-1890285.41926,-2297781.145308,-2547505.026758,-3510621.489361,-2468832.07188,-2474523.183647,-2441412.382294,-2446943.097942,24538.460319,-2543406.074453,-2525113.406791
41.0,1.16015625,-261775.584433,88215.719249,-1630456.04592,30981.127141,-1509035.647993,-1890254.305631,-2297744.667261,-2547491.07927,-3510599.495244,-2468829.926113,-2474502.798856,-2441382.877992,-2447122.269526,24957.421417,-2543392.126965,-2525092.485558
42.0,1.1640625,-261576.5645,88136.325852,-1630489.305316,30967.716094,-1509031.8929,-1890242.50391,-2297573.005864,-2547488.933502,-3510604.859663,-2468831.535438,-2474490.460693,-2441374.294922,-2447394.245552,25210.621978,-2543381.398127,-2525084.975372
43.0,1.16796875,-261671.51471,87955.544943,-1630688.861691,30718.807068,-1509038.330202,-1890255.378515,-2297789.728378,-2547494.834363,-3510608.078314,-2468829.389671,-2474490.460693,-2441382.34155,-2447336.846273,24850.669485,-2543374.960825,-2525084.975372
44.0,1.171875,-261838.348131,88019.381525,-1630939.380042,30754.748673,-1509046.37683,-1890273.081097,-2298166.84701,-2547502.880991,-3510610.760523,-2468837.436299,-2474500.116646,-2441390.388178,-2447346.502226,24599.07825,-2543369.596406,-2525090.339791
45.0,1.17578125,-261744.470804,88221.620109,-1631006.971718,31029.943351,-1509046.913272,-1890263.961585,-2298169.52922,-2547502.880991,-3510604.323221,-2468847.092253,-2474504.944623,-2441384.487317,-2447526.210252,24792.197322,-2543379.788802,-2525088.730465
46.0,1.1796875,-261529.894057,88179.241202,-1630988.196252,31044.427281,-1509054.423458,-1890263.425143,-2297934.03124,-2547513.609828,-3510609.151198,-2468855.675322,-2474504.408181,-2441388.24241,-2447652.27409,25082.412372,-2543403.928686,-2525095.704209
47.0,1.18359375,-261576.5645,87985.049246,-1631141.618626,30939.284675,-1509044.231062,-1890263.425143,-2298045.074707,-2547500.735223,-3510601.641011,-2468836.363415,-2474487.778483,-2441381.805108,-2447593.801927,24956.348533,-2543388.908313,-2525082.293163
48.0,1.1875,-261757.881851,87998.460293,-1631374.434397,30913.535465,-1509072.12604,-1890296.684539,-2298404.490758,-2547521.120014,-3510620.952919,-2468854.065997,-2474512.454809,-2441403.262782,-2447481.685577,24786.832903,-2543395.345616,-2525102.141512
49.0,1.19140625,-261718.721595,88215.719249,-1631462.410863,31034.771327,-1509057.105667,-1890272.008213,-2298466.181572,-2547503.953875,-3510604.323221,-2468844.946485,-2474496.897995,-2441379.122898,-2447651.201207,24836.721997,-2543373.351499,-2525082.829604
50.0,1.1953125,-261493.416011,88220.010784,-1631409.83956,31072.8587,-1509042.085295,-1890249.477655,-2298202.788616,-2547487.860619,-3510584.474872,-2468833.681206,-2474480.268297,-2441364.638968,-2447861.486418,25106.015814,-2543377.106592,-2525071.564325
51.0,1.19921875,-261504.68129,88022.600177,-1631503.180445,30973.080513,-1509038.866644,-1890250.014097,-2298222.100523,-2547481.423316,-3510581.792662,-2468814.905741,-2474463.638599,-2441361.956759,-2447806.769348,25051.298744,-2543371.205732,-2525062.981255
52.0,1.203125,-261695.654594,87930.868617,-1631712.392773,30917.827,-1509058.714993,-1890277.909074,-2298557.37669,-2547493.761479,-3510595.740151,-2468820.806601,-2474478.12253,-2441377.513573,-2447717.719998,24738.553135,-2543370.66929,-2525074.782976
53.0,1.20703125,-261715.502943,87824.116686,-1631805.733658,30981.127141,-1509059.787877,-1890275.763306,-2298672.175249,-2547484.105526,-3510585.011314,-2468819.197276,-2474475.44032,-2441364.102526,-2447775.119278,24829.748253,-2543365.304871,-2525065.127023
54.0,1.2109375,-261506.827057,88130.961434,-1631744.579285,30933.920256,-1509044.767504,-1890255.378515,-2298402.34499,-2547473.376688,-3510563.553639,-2468815.978624,-2474455.591971,-2441343.181293,-2447892.063605,25325.95698,-2543357.794685,-2525051.179534
55.0,1.21484375,-261469.276127,88185.142062,-1631798.223471,31013.313653,-1509050.131923,-1890265.034469,-2298333.680431,-2547481.423316,-3510582.329104,-2468812.223531,-2474452.909762,-2441352.837247,-2447908.156861,25173.071047,-2543358.331127,-2525057.080395
56.0,1.21875,-261650.057036,88089.118968,-1631996.17052,30952.695722,-1509080.709109,-1890304.194725,-2298640.525179,-2547502.880991,-3510609.151198,-2468826.707462,-2474477.586088,-2441380.732224,-2447805.160022,24824.920276,-2543367.987081,-2525079.074511
57.0,1.22265625,-261723.01313,88268.290552,-1632125.45301,31036.380653,-1509089.828621,-1890312.241353,-2298824.524739,-2547505.5632,-3510602.177453,-2468833.681206,-2474484.559832,-2441383.950875,-2447894.745814,24777.713392,-2543369.596406,-2525081.220279
58.0,1.2265625,-259984.405039,86798.976278,-1626475.110826,29885.712848,-1501370.430156,-1882646.487075,-2293064.211972,-2539892.916667,-3503069.460758,-2461166.317602,-2466828.997949,-2433712.832178,-2440322.868862,24077.120313,-2535769.288036,-2517473.401722
59.0,1.23046875,-258226.485041,84747.086137,-1619909.062375,28344.515365,-1493785.142158,-1875229.105381,-2286566.291638,-2532449.249321,-3495840.906601,-2453612.679674,-2459430.928162,-2426316.908159,-2430525.831047,23165.16914,-2528444.174343,-2510145.069378
60.0,1.234375,-261672.051152,87972.711083,-1630109.504474,30876.520977,-1508671.940407,-1890047.239071,-2296872.949227,-2547077.48259,-3510329.664985,-2468353.565735,-2474197.026991,-2441114.120616,-2444399.290609,24898.949253,-2543121.223822,-2524828.019718
61.0,1.23828125,-261865.706666,88256.488831,-1630502.179921,31041.745072,-1509123.088017,-1890452.25268,-2297435.140304,-2547522.72934,-3510714.830245,-2468815.978624,-2474597.749066,-2441504.650295,-2445824.61665,24807.754136,-2543502.097547,-2525227.668909
62.0,1.2421875,-261658.103664,88383.089111,-1630511.299433,31136.15884,-1509101.630342,-1890390.025424,-2297314.440884,-2547506.636084,-3510663.868268,-2468811.687089,-2474553.760833,-2441449.933225,-2446588.509868,25079.730163,-2543464.546617,-2525175.097606
63.0,1.24609375,-261469.276127,88238.249807,-1630590.692829,31088.415514,-1509072.662481,-1890341.209214,-2297187.840603,-2547485.178409,-3510624.17157,-2468790.229415,-2474504.408181,-2441405.944992,-2447031.074408,25250.855118,-2543431.287221,-2525127.890721
64.0,1.25,-261591.584872,88053.177363,-1630891.636716,30970.398303,-1509065.688737,-1890331.016818,-2297474.837002,-2547474.986014,-3510602.713895,-2468772.526833,-2474477.049646,-2441387.705968,-2447198.444271,24987.462161,-2543396.4185,-2525099.995744
65.0,1.25390625,-261745.543688,88139.544504,-1631216.184046,30990.783094,-1509071.053156,-1890328.334609,-2297838.008146,-2547471.230921,-3510584.474872,-2468773.063275,-2474471.148785,-2441374.831364,-2447337.382714,24777.17695,-2543375.497267,-2525083.902488
66.0,1.2578125,-261618.406966,88298.867738,-1631359.414024,31096.998584,-1509091.974389,-1890334.771911,-2297796.702122,-2547495.370805,-3510599.495244,-2468805.786229,-2474490.460693,-2441385.023759,-2447608.822299,25126.400605,-2543397.491383,-2525097.849977
67.0,1.26171875,-261439.771824,88194.798016,-1631459.728653,31072.8587,-1509100.021017,-1890335.308353,-2297612.16612,-2547505.5632,-3510612.906291,-2468821.879485,-2474488.851367,-2441387.705968,-2447834.127883,25410.714794,-2543401.782918,-2525102.677954
68.0,1.265625,-261549.742407,87982.367037,-1631744.579285,30878.130302,-1509111.822738,-1890353.010935,-2297813.868262,-2547512.536944,-3510619.343593,-2468821.343043,-2474487.778483,-2441398.971248,-2447808.915115,25037.887697,-2543395.882058,-2525106.969488
69.0,1.26953125,-261735.887734,88012.944223,-1632054.642684,30806.247092,-1509090.901505,-1890338.527005,-2298199.569964,-2547488.39706,-3510595.740151,-2468792.911624,-2474464.711483,-2441376.440689,-2447802.477813,24760.547252,-2543354.576034,-2525078.001628
70.0,1.2734375,-261663.468082,88193.18869,-1632183.388732,31071.249374,-1509086.60997,-1890327.798167,-2298208.689476,-2547487.860619,-3510586.620639,-2468799.348926,-2474465.247925,-2441365.711852,-2447950.535768,24924.698463,-2543361.013336,-2525073.173651
71.0,1.27734375,-261447.818452,88132.570759,-1632219.866779,31083.587537,-1509071.589598,-1890303.658283,-2297964.608427,-2547477.668223,-3510576.428244,-2468787.010764,-2474447.008901,-2441348.00927,-2448115.223421,25202.57535,-2543365.304871,-2525059.226162
72.0,1.28125,-261515.946569,87909.947385,-1632424.25113,30963.424559,-1509067.834505,-1890304.194725,-2298065.459498,-2547466.939386,-3510567.845174,-2468767.162414,-2474428.769878,-2441343.717735,-2448060.506351,25062.564023,-2543351.893825,-2525047.960883
73.0,1.28515625,-261726.768223,87878.833756,-1632695.154273,30916.754117,-1509081.245551,-1890322.97019,-2298430.239967,-2547471.230921,-3510569.990941,-2468767.698856,-2474435.743622,-2441354.446573,-2448007.935048,24743.917554,-2543344.92008,-2525054.398186
74.0,1.2890625,-261717.112269,88065.515526,-1632827.118972,31020.287397,-1509091.437947,-1890327.798167,-2298497.295201,-2547483.032642,-3510573.209592,-2468789.156531,-2474445.936018,-2441358.201666,-2448098.593724,24938.10951,-2543356.18536,-2525064.054139
75.0,1.29296875,-261488.588034,88048.885828,-1632814.244367,31046.573048,-1509081.245551,-1890309.022702,-2298226.392058,-2547477.131781,-3510573.746034,-2468789.692973,-2474437.352948,-2441347.472828,-2448292.785679,25354.92484,-2543351.893825,-2525056.543953
76.0,1.296875,-261485.369383,87820.898035,-1632929.579369,30904.952396,-1509093.583714,-1890322.97019,-2298234.975128,-2547487.324177,-3510588.229965,-2468788.083647,-2474439.498715,-2441362.493201,-2448294.395005,25090.995442,-2543353.50315,-2525066.736348
77.0,1.30078125,-261695.654594,87737.749545,-1633161.322255,30688.766323,-1509110.213412,-1890352.474493,-2298580.44369,-2547501.808107,-3510600.031686,-2468790.765857,-2474447.008901,-2441375.367805,-2448182.815097,24737.480251,-2543348.675173,-2525076.392302
78.0,1.3046875,-261746.08013,87908.874501,-1633288.458978,30940.894001,-1509095.19304,-1890338.527005,-2298713.481273,-2547487.324177,-3510580.183337,-2468782.719229,-2474437.88939,-2441355.519456,-2448232.70419,24742.84467,-2543337.946336,-2525062.444814
79.0,1.30859375,-261539.013569,87758.134336,-1633233.741907,31031.552676,-1509087.146412,-1890322.433749,-2298453.843409,-2547474.986014,-3510562.480755,-2468774.672601,-2474424.478343,-2441339.962642,-2448379.15282,25047.007209,-2543343.847197,-2525051.179534
80.0,1.3125,-261524.529639,87369.750425,-1633276.120815,30932.310931,-1509106.458319,-1890341.745656,-2298371.767804,-2547485.714851,-3510578.037569,-2468774.136159,-2474425.014785,-2441352.837247,-2448420.458844,25065.782674,-2543358.867569,-2525061.908372
81.0,1.31640625,-261734.814851,87668.548544,-1633478.359399,30830.923418,-1509128.988877,-1890373.932168,-2298674.857458,-2547496.98013,-3510592.5215,-2468777.891252,-2474435.743622,-2441374.831364,-2448315.316238,24730.506507,-2543359.940453,-2525075.319418
82.0,1.3203125,-261834.056596,87899.218547,-1633617.834284,30894.76,-1509115.041389,-1890359.984679,-2298863.684996,-2547478.204665,-3510568.381616,-2468764.480205,-2474420.72325,-2441351.764363,-2448334.091703,24710.658158,-2543335.800569,-2525053.861744
83.0,1.32421875,-261645.229059,87967.883106,-1633554.534144,30963.961001,-1509110.213412,-1890344.427865,-2298616.921737,-2547479.277549,-3510567.308732,-2468772.526833,-2474414.822389,-2441341.035526,-2448429.041914,25152.149815,-2543336.33701,-2525050.643092
84.0,1.328125,-259130.389587,85314.641632,-1624534.800593,28913.680186,-1497056.364662,-1878396.258163,-2289764.021607,-2535600.845289,-3498848.736149,-2456791.097735,-2462471.480664,-2429393.402266,-2436312.965907,23445.191794,-2531455.222542,-2513188.840531
85.0,1.33203125,-259276.838216,84921.429744,-1623485.520302,28605.226112,-1497251.629502,-1878722.95126,-2289062.892087,-2535820.786455,-3499218.344595,-2456956.858272,-2462812.12125,-2429744.771689,-2433821.729877,23101.332557,-2531810.883499,-2513544.501489
86.0,1.3359375,-262054.534203,87768.863174,-1631804.660774,30841.115813,-1509174.049994,-1890561.686821,-2297397.052931,-2547513.073386,-3510745.943874,-2468758.579345,-2474592.384647,-2441540.5919,-2445572.488972,24628.582553,-2543513.899268,-2525254.491002
87.0,1.33984375,-261859.269364,87890.099036,-1631707.028354,30937.138908,-1509166.003366,-1890502.678216,-2297240.411906,-2547517.901363,-3510691.226803,-2468774.136159,-2474545.177763,-2441479.437528,-2446601.920915,24869.981393,-2543474.20257,-2525211.575653
88.0,1.34375,-261667.223175,87731.312243,-1631744.579285,30880.812512,-1509162.784715,-1890473.710355,-2297085.380207,-2547525.411549,-3510677.279315,-2468783.792112,-2474516.209902,-2441453.151876,-2447235.995202,25034.132604,-2543459.182198,-2525183.144234
89.0,1.34765625,-261790.068363,87522.099915,-1632020.846846,30753.139347,-1509164.394041,-1890465.663727,-2297363.257094,-2547523.265782,-3510661.722501,-2468774.672601,-2474491.533576,-2441436.522178,-2447527.283135,24760.01081,-2543425.922802,-2525157.931466
90.0,1.3515625,-261957.438225,87579.499195,-1632333.056013,30757.967324,-1509154.201645,-1890446.35182,-2297747.349471,-2547503.953875,-3510628.463105,-2468758.579345,-2474463.638599,-2441411.30941,-2447727.375952,24519.684854,-2543381.934569,-2525123.062745
91.0,1.35546875,-261843.71255,87724.87494,-1632479.504642,30852.917534,-1509135.42618,-1890411.483098,-2297728.037563,-2547490.542828,-3510597.349476,-2468751.6056,-2474440.571599,-2441376.440689,-2447996.669769,24724.605647,-2543364.768429,-2525093.022
92.0,1.359375,-261636.645989,87611.685707,-1632562.653132,30828.241209,-1509128.452436,-1890393.780517,-2297539.746468,-2547488.39706,-3510589.83929,-2468750.532717,-2474423.405459,-2441363.029642,-2448236.995725,24991.753696,-2543368.523522,-2525082.293163
93.0,1.36328125,-261738.033502,87382.625029,-1632813.171484,30656.579811,-1509147.227901,-1890412.555982,-2297738.229959,-2547499.125898,-3510602.713895,-2468757.506461,-2474427.696994,-2441376.977131,-2448282.593284,24923.089137,-2543359.940453,-2525087.657581
94.0,1.3671875,-261948.318714,87387.989448,-1633096.412789,30481.699763,-1509155.810971,-1890428.649238,-2298132.514731,-2547506.636084,-3510610.760523,-2468761.261554,-2474434.134297,-2441382.34155,-2448300.832307,24482.670365,-2543342.774313,-2525089.266907
95.0,1.37109375,-261897.893178,87554.286427,-1633203.164721,30772.987696,-1509146.691459,-1890414.165308,-2298164.164801,-2547503.953875,-3510597.349476,-2468765.553089,-2474433.061413,-2441369.466945,-2448429.041914,24604.442668,-2543343.847197,-2525080.683837
96.0,1.375,-261683.852873,87489.376961,-1633213.357116,30811.075069,-1509129.525319,-1890388.95254,-2297930.276147,-2547490.006386,-3510575.891802,-2468750.532717,-2474406.775761,-2441348.00927,-2448577.099869,24883.928881,-2543341.701429,-2525064.590581
97.0,1.37890625,-261745.007246,87256.024749,-1633371.607467,30687.156998,-1509111.822738,-1890375.541493,-2298030.590776,-2547469.085153,-3510558.18922,-2468719.419088,-2474377.271459,-2441332.988898,-2448565.83459,24752.500624,-2543314.342894,-2525040.450697
98.0,1.3828125,-261961.72976,87210.963632,-1633593.6944,30631.903485,-1509118.26004,-1890385.733889,-2298399.662781,-2547462.111409,-3510559.798546,-2468709.226693,-2474375.125691,-2441332.988898,-2448529.356543,24429.026178,-2543297.176754,-2525036.159162
99.0,1.38671875,-261970.849272,87388.52589,-1633667.186936,30731.681673,-1509113.968505,-1890376.614377,-2298483.884154,-2547455.674107,-3510548.533267,-2468711.37246,-2474372.443482,-2441322.260061,-2448600.166869,24528.267923,-2543296.10387,-2525027.576092
100.0,1.390625,-261754.6632,87372.432634,-1633605.496121,30760.113091,-1509126.84311,-1890383.051679,-2298217.272546,-2547473.91313,-3510561.407871,-2468737.12167,-2474384.781645,-2441334.061782,-2448767.00029,25030.913953,-2543322.389522,-2525048.497325
101.0,1.39453125,-261758.418293,87142.835515,-1633678.988657,30642.632323,-1509147.227901,-1890407.191564,-2298209.76236,-2547493.225037,-3510587.693523,-2468748.923391,-2474397.65625,-2441356.055898,-2448755.198569,24833.503346,-2543327.753941,-2525067.27279
102.0,1.3984375,-261975.140807,87042.520886,-1633868.889078,30561.629601,-1509154.201645,-1890418.456843,-2298552.012271,-2547491.07927,-3510593.057942,-2468738.194554,-2474393.901157,-2441358.738108,-2448714.965429,24422.052434,-2543308.442033,-2525061.908372
103.0,1.40234375,-262037.368064,87208.817865,-1633951.501125,30632.439927,-1509162.248273,-1890419.529726,-2298700.070226,-2547494.834363,-3510585.547755,-2468747.850507,-2474403.55711,-2441358.738108,-2448723.548499,24414.005806,-2543314.342894,-2525066.199907
104.0,1.40625,-261835.12948,87244.75947,-1633875.32638,30536.416833,-1509155.810971,-1890409.873773,-2298447.942549,-2547498.589456,-3510578.574011,-2468750.532717,-2474397.65625,-2441351.227921,-2448859.804733,24718.704786,-2543330.972592,-2525066.199907
105.0,1.41015625,-261782.558177,87031.792048,-1633895.174729,30563.238926,-1509152.59232,-1890416.847517,-2298356.747431,-2547505.5632,-3510587.693523,-2468746.241182,-2474392.291831,-2441356.59234,-2448942.41678,24750.354856,-2543340.092103,-2525069.955
106.0,1.4140625,-261984.260319,86814.533092,-1634059.325941,30530.515972,-1509174.586436,-1890445.815378,-2298654.472668,-2547513.609828,-3510602.713895,-2468747.314065,-2474404.629994,-2441374.294922,-2448845.320802,24417.760899,-2543339.01922,-2525080.683837
107.0,1.41796875,-262102.27753,86624.09623,-1634160.177012,30589.524578,-1509196.580553,-1890464.590843,-2298863.148554,-2547521.120014,-3510603.250337,-2468760.18867,-2474415.895273,-2441378.586457,-2448865.169151,24382.892177,-2543340.092103,-2525084.43893
108.0,1.421875,-261939.199202,87010.334374,-1634081.856499,30662.480672,-1509195.507669,-1890456.544215,-2298647.498923,-2547521.656456,-3510604.859663,-2468773.063275,-2474412.676622,-2441372.149154,-2448993.378758,24835.112671,-2543341.701429,-2525082.829604
109.0,1.42578125,-261500.389755,86716.900673,-1632696.227157,30314.866342,-1507317.961135,-1888588.117193,-2297167.992254,-2545660.203178,-3508761.108966,-2466893.370973,-2472528.692785,-2439501.039922,-2447173.767945,24523.976388,-2541474.34729,-2523219.767001
110.0,1.4296875,-258350.939554,83079.288373,-1620710.506524,27543.607657,-1491817.47339,-1873262.509497,-2285839.412908,-2530404.869366,-3493757.36639,-2451477.641043,-2457229.907182,-2424185.624622,-2430544.07007,22115.352406,-2526248.517781,-2508026.124004
111.0,1.43359375,-261371.643707,85977.68378,-1629220.083859,29711.905684,-1504858.375175,-1886314.140119,-2294454.132849,-2543229.585079,-3506541.312521,-2464386.578129,-2470254.17927,-2437224.917081,-2441371.07627,23706.438983,-2539210.02617,-2520967.247601
112.0,1.4375,-262214.930322,87166.438957,-1632154.957313,30632.976369,-1509214.283134,-1890598.70131,-2297309.612907,-2547509.318293,-3510707.320059,-2468721.564856,-2474516.209902,-2441487.484156,-2446669.51259,24550.26204,-2543459.182198,-2525216.403629
113.0,1.44140625,-262008.400203,87014.089467,-1632105.068219,30581.47795,-1509206.236506,-1890554.713077,-2297120.78537,-2547514.682712,-3510674.060663,-2468726.929274,-2474474.903879,-2441448.860341,-2447467.738088,24722.459879,-2543427.532128,-2525182.07135
114.0,1.4453125,-262117.834344,86798.976278,-1632325.545827,30448.976809,-1509202.481413,-1890537.010495,-2297383.105443,-2547508.24541,-3510648.311454,-2468714.591111,-2474443.253808,-2441426.329783,-2447844.320279,24455.311829,-2543384.080337,-2525147.73907
115.0,1.44921875,-262289.495741,86847.256046,-1632608.787132,30444.685274,-1509208.918716,-1890531.109635,-2297769.343587,-2547510.391177,-3510632.218198,-2468719.419088,-2474433.597855,-2441410.772969,-2448073.380956,24201.038385,-2543356.721801,-2525126.281396
116.0,1.453125,-262185.426019,86996.386885,-1632747.189134,30540.708368,-1509194.971227,-1890501.06889,-2297759.687633,-2547499.125898,-3510599.495244,-2468717.273321,-2474410.530855,-2441378.586457,-2448372.179076,24394.693899,-2543343.847197,-2525098.386419
117.0,1.45703125,-261977.286575,86893.926489,-1632829.26474,30520.323577,-1509189.606808,-1890483.366309,-2297569.250771,-2547499.125898,-3510592.5215,-2468717.809763,-2474395.510482,-2441365.17541,-2448630.207614,24633.946971,-2543348.138731,-2525084.975372
118.0,1.4609375,-262062.044389,86661.64716,-1633067.98137,30387.285994,-1509177.268645,-1890473.173913,-2297758.61475,-2547483.032642,-3510579.110453,-2468693.669879,-2474371.370598,-2441352.837247,-2448667.758544,24439.218573,-2543320.780196,-2525063.517697
119.0,1.46484375,-262266.428741,86654.673416,-1633347.467583,30339.542668,-1509170.831343,-1890467.809494,-2298150.753754,-2547468.012269,-3510566.235848,-2468678.649506,-2474353.668017,-2441337.280433,-2448655.420381,24295.988595,-2543282.692824,-2525045.815116
120.0,1.46875,-262226.732043,86819.897511,-1633462.266143,30288.58069,-1509180.487297,-1890469.41882,-2298193.669104,-2547480.350432,-3510568.381616,-2468700.643623,-2474364.396854,-2441338.353317,-2448805.624104,24345.341247,-2543283.229266,-2525051.179534
121.0,1.47265625,-262020.201924,86763.034673,-1633467.630561,30427.519134,-1509151.519436,-1890439.378076,-2297953.343147,-2547461.574967,-3510543.168848,-2468681.868158,-2474335.965435,-2441312.604107,-2448979.967711,24543.288296,-2543274.109754,-2525027.576092
122.0,1.4765625,-262074.918994,86530.218903,-1633611.396982,30370.119854,-1509143.472808,-1890435.622982,-2298038.637404,-2547450.309688,-3510535.658662,-2468659.337599,-2474317.18997,-2441304.557479,-2448947.781199,24418.297341,-2543258.55294,-2525014.165046
123.0,1.48046875,-262292.714392,86474.965391,-1633843.67631,30306.819714,-1509167.612692,-1890465.127285,-2298410.92806,-2547466.939386,-3510553.361243,-2468668.457111,-2474332.746784,-2441323.869386,-2448850.685221,24083.021174,-2543258.55294,-2525029.185418
124.0,1.484375,-262308.807648,86649.308997,-1633942.381614,30398.551273,-1509184.778832,-1890475.856122,-2298505.341829,-2547479.813991,-3510558.18922,-2468690.451227,-2474349.376482,-2441330.306689,-2448994.451641,24149.539965,-2543276.791963,-2525040.450697
125.0,1.48828125,-262085.11139,86641.262369,-1633893.565404,30430.201343,-1509170.294901,-1890450.106913,-2298245.167523,-2547469.085153,-3510544.778174,-2468687.769018,-2474334.356109,-2441315.286316,-2449148.946899,24638.238506,-2543278.937731,-2525028.648976
126.0,1.4921875,-262065.799483,86412.201692,-1633968.130823,30320.767202,-1509171.904227,-1890457.080657,-2298230.683593,-2547469.085153,-3510551.751918,-2468681.868158,-2474328.991691,-2441318.504968,-2449178.451202,24518.61197,-2543264.990242,-2525031.331185
127.0,1.49609375,-262281.985555,86304.913319,-1634155.885477,30233.327178,-1509202.481413,-1890494.095146,-2298568.641969,-2547493.225037,-3510581.25622,-2468695.815646,-2474353.668017,-2441346.936386,-2449102.812898,24058.88129,-2543269.818219,-2525052.252418
128.0,1.5,-262357.087416,86462.627228,-1634250.835687,30284.825597,-1509192.82546,-1890480.684099,-2298727.428761,-2547481.423316,-3510559.798546,-2468688.30546,-2474341.866296,-2441328.697363,-2449109.250201,24032.059196,-2543254.797847,-2525035.086278
129.0,1.50390625,-262166.650554,86504.469693,-1634177.343151,30194.166922,-1509194.434785,-1890476.392564,-2298483.884154,-2547490.542828,-3510560.87143,-2468698.497855,-2474344.012063,-2441327.624479,-2449214.929249,24332.466642,-2543276.791963,-2525040.987139
130.0,1.5078125,-262113.006367,86295.257365,-1634190.754198,30257.467062,-1509176.732204,-1890465.663727,-2298386.251734,-2547477.668223,-3510554.970569,-2468678.113065,-2474322.554388,-2441317.968526,-2449262.672575,24374.309108,-2543268.745335,-2525028.112534
131.0,1.51171875,-262314.172067,86142.371433,-1634347.395223,30191.484713,-1509179.414413,-1890477.465448,-2298681.294761,-2547473.91313,-3510554.434127,-2468665.23846,-2474318.262853,-2441320.650735,-2449187.034272,24042.251592,-2543253.188521,-2525025.966767
132.0,1.515625,-262439.163022,86274.872574,-1634446.100527,30246.738225,-1509203.017855,-1890499.996006,-2298891.579973,-2547489.469944,-3510564.626523,-2468685.086809,-2474340.25697,-2441334.061782,-2449181.133411,23932.817451,-2543266.063126,-2525042.060023
133.0,1.51953125,-262263.21009,86325.834552,-1634370.998665,30321.840086,-1509194.971227,-1890483.366309,-2298677.003226,-2547483.032642,-3510552.824802,-2468684.550367,-2474333.283226,-2441320.650735,-2449268.573435,24325.492898,-2543271.427545,-2525033.476953
134.0,1.5234375,-262165.57767,85824.797848,-1634333.984176,30252.639085,-1509183.169506,-1890470.491704,-2298492.467224,-2547460.502083,-3510535.12222,-2468659.337599,-2474301.096714,-2441299.19306,-2449325.972715,24505.200923,-2543241.923242,-2525009.337069
135.0,1.52734375,-260684.998117,84115.157618,-1628180.995963,28829.995254,-1500844.180685,-1882202.849651,-2292702.113712,-2539224.5101,-3502399.981308,-2460345.561546,-2466020.580056,-2433016.530635,-2440812.103845,22996.189951,-2534983.937142,-2516780.855272
136.0,1.53125,-259437.234335,82969.31779,-1622350.409311,27641.776519,-1494512.557329,-1876023.575786,-2287480.388579,-2533006.612421,-3496378.957794,-2454037.541632,-2459872.419819,-2426862.469538,-2432174.316904,21953.346962,-2528878.692255,-2510683.657012
137.0,1.53515625,-262492.807209,86323.688784,-1632250.443965,30207.577969,-1508908.51127,-1890343.354981,-2297126.686231,-2547157.94887,-3510373.116776,-2468318.697014,-2474148.747223,-2441154.890198,-2446077.817211,24111.989035,-2543098.156822,-2524878.445253
138.0,1.5390625,-262364.597602,86266.825946,-1632331.446687,30235.472946,-1509210.528041,-1890601.383519,-2297115.420951,-2547468.548711,-3510631.681756,-2468636.807041,-2474404.629994,-2441408.090759,-2447382.443831,24329.247991,-2543362.622662,-2525142.911094
139.0,1.54296875,-262468.130883,86044.739013,-1632510.618271,30101.362479,-1509222.329762,-1890595.482659,-2297347.70028,-2547480.350432,-3510626.853779,-2468644.317227,-2474383.172319,-2441394.679713,-2447856.122,24066.927918,-2543330.972592,-2525120.916977
140.0,1.546875,-262644.083815,86082.289944,-1632779.375646,30090.633642,-1509242.714553,-1890598.70131,-2297730.719773,-2547495.907247,-3510614.515616,-2468660.946925,-2474383.708761,-2441388.778852,-2448176.914236,23801.389194,-2543311.660685,-2525107.50593
141.0,1.55078125,-262549.133605,86233.56655,-1632913.486113,30187.729619,-1509245.396763,-1890581.53517,-2297738.229959,-2547501.808107,-3510599.495244,-2468678.649506,-2474377.807901,-2441375.904247,-2448554.56931,23984.852312,-2543309.514917,-2525097.313535
142.0,1.5546875,-262351.722998,86131.642596,-1632999.853253,30168.417712,-1509236.277251,-1890560.613937,-2297548.86598,-2547499.66234,-3510586.084197,-2468674.357971,-2474356.886668,-2441357.665224,-2448804.55122,24227.324036,-2543310.587801,-2525081.220279
143.0,1.55859375,-262441.308789,85896.144616,-1633240.715652,30034.307246,-1509220.183995,-1890543.98424,-2297729.646889,-2547476.058898,-3510565.162964,-2468644.317227,-2474326.845923,-2441335.671107,-2448909.157385,24036.887173,-2543276.791963,-2525051.179534
144.0,1.5625,-262656.95842,85878.442035,-1633525.566283,29899.123895,-1509220.183995,-1890543.98424,-2298126.61387,-2547469.085153,-3510555.507011,-2468636.807041,-2474319.335737,-2441326.015154,-2448926.859966,23825.529078,-2543248.896986,-2525036.695604
145.0,1.56640625,-262632.282094,86044.739013,-1633659.140308,29924.336663,-1509231.985716,-1890553.640193,-2298179.185173,-2547489.469944,-3510567.845174,-2468671.13932,-2474333.819668,-2441336.207549,-2449042.731409,24056.735522,-2543252.652079,-2525050.106651
146.0,1.5703125,-262421.996882,85988.412617,-1633676.842889,30131.403223,-1509224.47553,-1890539.692705,-2297939.395659,-2547487.860619,-3510558.18922,-2468672.748646,-2474324.163714,-2441327.624479,-2449182.742737,24138.811128,-2543256.943614,-2525044.20579
147.0,1.57421875,-262469.740208,85751.841754,-1633832.947473,30020.359757,-1509207.30939,-1890527.890984,-2298010.742427,-2547468.012269,-3510536.731546,-2468638.416366,-2474292.513644,-2441309.921898,-2449198.299551,24015.96594,-2543228.512195,-2525017.920139
148.0,1.578125,-262693.436467,85688.005172,-1634063.617475,29953.840965,-1509226.621297,-1890551.494426,-2298387.86106,-2547478.741107,-3510556.579895,-2468644.317227,-2474306.461132,-2441323.869386,-2449142.509597,23675.325355,-2543224.22066,-2525028.112534
149.0,1.58203125,-262721.867886,85859.130127,-1634165.54143,30042.353874,-1509234.667925,-1890552.030868,-2298503.732503,-2547483.569084,-3510550.142592,-2468657.728274,-2474314.50776,-2441319.577851,-2449232.63183,23717.167821,-2543231.194405,-2525030.258302
150.0,1.5859375,-262506.218255,85852.692825,-1634126.917616,30076.149711,-1509243.787437,-1890552.030868,-2298253.214151,-2547499.125898,-3510555.507011,-2468673.82153,-2474321.481505,-2441327.088037,-2449374.252483,24017.038824,-2543261.235149,-2525043.132906
151.0,1.58984375,-262481.541929,85625.241473,-1634194.509291,29965.106245,-1509242.178111,-1890555.249519,-2298231.756476,-2547499.125898,-3510564.626523,-2468665.23846,-2474316.117086,-2441330.306689,-2449387.127088,24076.04743,-2543259.625823,-2525040.450697
152.0,1.59375,-262699.337327,85508.833588,-1634394.602107,29873.374685,-1509264.70867,-1890583.144496,-2298570.787736,-2547510.391177,-3510579.646895,-2468671.675762,-2474325.236598,-2441347.472828,-2449289.494668,23768.66624,-2543245.141893,-2525052.252418
153.0,1.59765625,-262786.24091,85661.183078,-1634502.963364,29942.039244,-1509260.953577,-1890577.780077,-2298741.37625,-2547501.808107,-3510565.699406,-2468670.066437,-2474320.945063,-2441336.743991,-2449294.322645,23601.296377,-2543234.413056,-2525044.20579
154.0,1.6015625,-262597.413373,85705.707753,-1634434.298806,29998.36564,-1509245.396763,-1890553.103751,-2298499.97741,-2547487.860619,-3510545.851057,-2468660.410483,-2474303.242481,-2441316.3592,-2449439.698391,23895.802962,-2543234.413056,-2525028.648976
155.0,1.60546875,-262540.550535,85494.349658,-1634439.126782,29807.928778,-1509237.350135,-1890547.739333,-2298383.569525,-2547482.4962,-3510541.02308,-2468644.317227,-2474288.222109,-2441309.385456,-2449472.421345,23949.983591,-2543231.730846,-2525019.529464
156.0,1.609375,-262743.862002,85335.026423,-1634586.111854,29676.50052,-1509251.834065,-1890574.561426,-2298667.347272,-2547497.516572,-3510558.18922,-2468647.535878,-2474301.096714,-2441331.379572,-2449388.736414,23616.31675,-2543233.876614,-2525032.404069
157.0,1.61328125,-262877.972469,85460.55382,-1634690.718018,29875.520453,-1509246.469646,-1890572.9521,-2298889.970647,-2547488.39706,-3510543.168848,-2468641.635018,-2474296.268737,-2441316.895642,-2449359.232111,23511.174144,-2543220.465567,-2525022.211674
158.0,1.6171875,-262713.821258,85551.212496,-1634619.907691,29956.523175,-1509245.396763,-1890563.832589,-2298686.65918,-2547493.761479,-3510544.778174,-2468656.118948,-2474297.341621,-2441312.604107,-2449447.745019,23951.592916,-2543231.194405,-2525027.03965
159.0,1.62109375,-262580.783675,85373.113796,-1634579.13811,29888.9315,-1509225.011972,-1890540.765588,-2298496.222317,-2547474.449572,-3510532.440011,-2468631.442622,-2474271.592411,-2441298.120177,-2449504.607857,23962.321754,-2543207.05452,-2525007.727743
160.0,1.625,-262559.326,84979.901907,-1633919.314613,29611.591054,-1508147.300261,-1889479.147134,-2297964.608427,-2546397.810745,-3509471.89444,-2467541.92919,-2473189.589165,-2440223.627117,-2448405.974913,23478.987632,-2542118.077531,-2523931.625358
161.0,1.62890625,-259413.630892,81615.87496,-1621872.97605,27031.842116,-1492542.742794,-1874032.840017,-2286677.335105,-2531026.069048,-3494329.21342,-2452028.566841,-2457768.494817,-2424776.783559,-2431836.89497,21290.304815,-2526764.038415,-2508607.090546
162.0,1.6328125,-261655.421454,83753.5958,-1628548.995083,28827.313045,-1503429.830483,-1884945.140474,-2293295.954859,-2541747.932642,-3505037.129526,-2462814.267017,-2468670.602878,-2435691.229783,-2440407.626677,22950.055951,-2537644.15236,-2519453.408653
163.0,1.63671875,-262836.666445,85336.635749,-1632525.638643,29868.546709,-1509306.014694,-1890747.295707,-2297090.744625,-2547516.828479,-3510690.153919,-2468641.098576,-2474438.425832,-2441469.781574,-2447101.348293,23890.974985,-2543392.663406,-2525202.992583
164.0,1.640625,-262944.491261,85192.869329,-1632636.145668,29732.826916,-1509315.134205,-1890728.520242,-2297284.936581,-2547530.239526,-3510662.795384,-2468646.999436,-2474405.702878,-2441444.032364,-2447768.681975,23632.410006,-2543349.211615,-2525174.024722
165.0,1.64453125,-263117.225542,85219.691422,-1632884.518252,29716.73366,-1509317.279973,-1890707.062567,-2297675.46626,-2547528.093759,-3510635.436849,-2468646.999436,-2474379.417226,-2441414.528062,-2448146.873492,23353.460235,-2543301.468289,-2525137.546675
166.0,1.6484375,-263028.176192,85379.014656,-1633020.238044,29814.36608,-1509283.484135,-1890650.736171,-2297695.314609,-2547495.907247,-3510581.25622,-2468626.078203,-2474333.283226,-2441356.055898,-2448500.925124,23527.803842,-2543258.55294,-2525081.220279
167.0,1.65234375,-262810.917236,85288.892423,-1633103.922976,29800.418592,-1509298.504507,-1890653.954822,-2297497.904002,-2547517.901363,-3510591.985058,-2468653.436739,-2474341.329854,-2441365.17541,-2448792.749499,23789.051031,-2543284.302149,-2525089.266907
168.0,1.65625,-262880.654678,85049.63935,-1633357.659979,29669.526776,-1509301.186717,-1890655.027706,-2297670.638284,-2547516.828479,-3510595.203709,-2468647.535878,-2474328.991691,-2441362.493201,-2448865.705593,23741.844146,-2543265.526684,-2525080.683837
169.0,1.66015625,-263093.6221,85024.963024,-1633661.822517,29573.503682,-1509310.84267,-1890666.829427,-2298075.115451,-2547520.583572,-3510594.667267,-2468649.681646,-2474330.064574,-2441364.638968,-2448901.110757,23330.393235,-2543239.241033,-2525075.85586
170.0,1.6640625,-263071.627983,85195.551538,-1633805.052496,29557.410426,-1509295.285856,-1890643.225985,-2298155.581731,-2547509.854735,-3510563.553639,-2468644.317227,-2474315.044202,-2441337.816875,-2449032.002572,23388.865398,-2543223.684218,-2525053.861744
171.0,1.66796875,-262850.613934,85155.318398,-1633827.046612,29747.847289,-1509266.317995,-1890609.430147,-2297924.375287,-2547491.07927,-3510542.095964,-2468628.223971,-2474286.076341,-2441309.385456,-2449175.768992,23678.544006,-2543217.783358,-2525030.258302
172.0,1.671875,-262881.727562,84924.648395,-1633974.568126,29650.751311,-1509267.927321,-1890612.112357,-2297988.211869,-2547488.39706,-3510543.168848,-2468614.276482,-2474274.27462,-2441309.921898,-2449152.16555,23583.593796,-2543212.418939,-2525024.357441
173.0,1.67578125,-263106.496704,84851.692301,-1634221.331384,29579.404542,-1509286.702786,-1890635.715799,-2298359.429641,-2547496.98013,-3510549.069708,-2468617.495134,-2474283.394132,-2441321.187177,-2449077.063689,23256.364257,-2543204.908753,-2525030.258302
174.0,1.6796875,-263138.683216,85025.499466,-1634345.785897,29669.526776,-1509313.52488,-1890655.027706,-2298483.884154,-2547517.901363,-3510571.063825,-2468656.65539,-2474313.434877,-2441340.499084,-2449185.424946,23462.894376,-2543225.293544,-2525055.471069
175.0,1.68359375,-262927.325121,85034.082536,-1634313.599385,29709.223474,-1509308.160461,-1890639.470892,-2298240.875988,-2547516.828479,-3510565.699406,-2468659.874041,-2474305.388249,-2441329.770247,-2449318.998971,23660.841425,-2543224.757102,-2525049.570209
176.0,1.6875,-262905.867446,84811.459161,-1634392.45634,29600.862217,-1509301.186717,-1890634.106473,-2298204.934383,-2547509.318293,-3510559.262104,-2468642.171459,-2474287.685667,-2441324.94227,-2449317.926087,23566.964098,-2543216.710474,-2525039.377813
177.0,1.69140625,-263120.980635,84689.150416,-1634595.231366,29505.375565,-1509288.848554,-1890629.814938,-2298536.991899,-2547488.39706,-3510545.314615,-2468612.667157,-2474265.69155,-2441309.921898,-2449233.704714,23223.104861,-2543180.232427,-2525017.920139
178.0,1.6953125,-263211.63931,84842.572789,-1634697.691762,29575.113007,-1509282.947693,-1890621.76831,-2298718.845692,-2547478.741107,-3510529.757801,-2468609.448506,-2474261.400016,-2441296.510851,-2449251.943738,23170.533558,-2543168.430706,-2525006.654859
179.0,1.69921875,-263014.765145,84895.144092,-1634629.563645,29497.328937,-1509289.921437,-1890622.304752,-2298484.957038,-2547493.225037,-3510534.049336,-2468628.223971,-2474272.665295,-2441304.021037,-2449350.649041,23467.185911,-2543196.862125,-2525019.529464
180.0,1.703125,-262921.42426,84693.978392,-1634626.881436,29446.903401,-1509278.119716,-1890615.86745,-2298356.21099,-2547490.542828,-3510534.049336,-2468617.495134,-2474260.863574,-2441301.87527,-2449368.888064,23620.071843,-2543198.471451,-2525015.237929
181.0,1.70703125,-263110.788239,84519.098344,-1634786.20467,29478.01703,-1509281.338368,-1890629.814938,-2298637.84297,-2547488.933502,-3510538.877313,-2468609.984947,-2474257.644922,-2441304.557479,-2449284.13025,23371.699258,-2543172.722241,-2525013.092162
182.0,1.7109375,-263245.97159,84371.040388,-1634897.248137,29524.687472,-1509263.099344,-1890612.112357,-2298879.24181,-2547458.356316,-3510505.081475,-2468582.626412,-2474230.286387,-2441271.834525,-2449235.31404,23092.749487,-2543130.879775,-2524979.832766
183.0,1.71484375,-263105.423821,84485.302506,-1634824.828485,29602.471543,-1509280.265484,-1890618.549659,-2298683.97697,-2547469.621595,-3510508.836568,-2468599.792552,-2474239.405899,-2441272.907409,-2449308.806575,23357.75177,-2543158.238311,-2524988.952278
184.0,1.71875,-263003.499866,84700.415695,-1634777.085158,29540.244286,-1509290.994321,-1890628.742055,-2298483.347712,-2547478.204665,-3510520.63829,-2468603.011203,-2474241.015225,-2441286.318455,-2449388.736414,23502.591074,-2543176.477334,-2524999.144673
185.0,1.72265625,-263167.651077,84533.582274,-1634890.810834,29417.93554,-1509292.603647,-1890639.470892,-2298703.825319,-2547472.840246,-3510519.565406,-2468585.308622,-2474234.577922,-2441290.073549,-2449295.395529,23217.740442,-2543160.384078,-2524993.780255
186.0,1.7265625,-262055.070645,83311.567701,-1630156.711359,28446.439319,-1502822.57829,-1884220.943954,-2294357.036872,-2541082.208286,-3504198.134446,-2462143.178242,-2467810.686566,-2434854.380471,-2442709.498728,22222.640779,-2536755.804629,-2518606.366945
187.0,1.73046875,-259830.982665,81136.295931,-1621722.235885,26794.198369,-1493137.120382,-1874697.491491,-2286441.837125,-2531571.093985,-3494906.424869,-2452526.921335,-2458334.440986,-2425357.213659,-2431012.920262,21287.086163,-2527352.515143,-2509202.541018
188.0,1.734375,-263020.129564,84456.334645,-1632197.33622,29356.781168,-1508506.17987,-1889998.422861,-2296543.037479,-2546683.197818,-3509887.636887,-2467760.26103,-2473591.920566,-2440647.416192,-2445517.23546,23434.999399,-2542552.595443,-2524377.944991
189.0,1.73828125,-263291.569148,84470.818576,-1632801.369763,29404.524494,-1509326.935926,-1890778.945777,-2297268.843325,-2547490.542828,-3510637.046175,-2468574.043342,-2474350.985807,-2441412.918736,-2447184.496782,23269.775304,-2543295.567429,-2525144.520419
190.0,1.7421875,-263462.157662,84491.203367,-1632999.853253,29384.139703,-1509326.935926,-1890754.805893,-2297639.524655,-2547492.152154,-3510602.713895,-2468576.725552,-2474325.236598,-2441378.050015,-2447748.833626,22984.924672,-2543245.141893,-2525105.896605
191.0,1.74609375,-263377.936289,84649.990159,-1633114.651813,29480.699239,-1509353.221578,-1890755.342335,-2297667.956074,-2547521.120014,-3510601.10457,-2468619.104459,-2474336.501877,-2441380.195782,-2448201.05412,23147.466558,-2543258.55294,-2525109.115256
192.0,1.75,-263167.114635,84566.84167,-1633187.607907,29470.506843,-1509328.00881,-1890712.963428,-2297475.909886,-2547499.125898,-3510570.527383,-2468601.938319,-2474295.732295,-2441338.353317,-2448549.204892,23436.608724,-2543236.558823,-2525068.882116
193.0,1.75390625,-263244.362264,84331.34369,-1633431.152514,29339.615028,-1509314.597763,-1890697.943055,-2297641.670423,-2547483.032642,-3510551.751918,-2468578.871319,-2474264.082225,-2441319.041409,-2448659.711916,23378.673003,-2543194.179916,-2525038.841371
194.0,1.7578125,-263453.574592,84300.766504,-1633737.997262,29292.944585,-1509317.816415,-1890699.552381,-2298042.928939,-2547478.741107,-3510539.413755,-2468572.434017,-2474255.499155,-2441309.385456,-2448713.356103,22932.353369,-2543160.92052,-2525026.503208
195.0,1.76171875,-263434.799127,84475.110111,-1633897.856939,29390.577005,-1509307.624019,-1890675.412497,-2298130.368964,-2547461.574967,-3510510.445894,-2468568.142482,-2474238.333015,-2441282.026921,-2448845.320802,23016.574742,-2543144.290822,-2525002.899766
196.0,1.765625,-263212.712194,84448.288017,-1633930.579892,29409.352471,-1509292.603647,-1890649.663287,-2297907.745589,-2547454.064781,-3510496.498406,-2468562.778063,-2474221.166876,-2441266.470106,-2449000.352502,23311.617769,-2543149.655241,-2524987.342952
197.0,1.76953125,-263230.414776,84222.445991,-1634089.903127,29258.612306,-1509306.014694,-1890664.68366,-2297959.78045,-2547466.402944,-3510508.836568,-2468562.778063,-2474223.849085,-2441277.735386,-2449032.539014,23228.46928,-2543156.092543,-2524993.780255
198.0,1.7734375,-263444.455081,84141.443269,-1634342.030804,29064.956792,-1509289.921437,-1890660.392125,-2298335.289757,-2547449.236804,-3510490.597545,-2468537.565295,-2474207.219387,-2441262.715013,-2448957.437153,22887.828694,-2543121.223822,-2524972.32258
199.0,1.77734375,-263485.761104,84313.104667,-1634459.511573,29312.256493,-1509285.093461,-1890652.881939,-2298479.592619,-2547444.945269,-3510480.941591,-2468542.929714,-2474207.755829,-2441255.204827,-2448997.133851,22928.061834,-2543118.541612,-2524965.885277
200.0,1.78125,-263270.111474,84332.953016,-1634417.669108,29383.066819,-1509281.874809,-1890639.470892,-2298241.41243,-2547442.26306,-3510478.795824,-2468550.976342,-2474200.782085,-2441245.548874,-2449097.984922,23422.661236,-2543123.369589,-2524962.130184
201.0,1.78515625,-263245.97159,84117.303385,-1634480.969248,29282.75219,-1509298.504507,-1890659.319241,-2298200.106406,-2547458.356316,-3510502.935708,-2468560.095854,-2474209.365154,-2441264.324339,-2449133.926527,23288.014327,-2543131.952659,-2524977.686999
202.0,1.7890625,-263457.866127,83994.99464,-1634677.306971,29187.80198,-1509315.670647,-1890683.995567,-2298530.554596,-2547468.012269,-3510512.05522,-2468560.632296,-2474216.875341,-2441279.344711,-2449095.302712,22881.391392,-2543123.906031,-2524986.80651
203.0,1.79296875,-263549.597686,84148.417014,-1634795.324182,29258.075864,-1509299.577391,-1890666.292985,-2298729.038087,-2547445.481711,-3510484.160243,-2468545.611923,-2474199.709201,-2441254.131943,-2449073.845038,22819.700577,-2543098.693263,-2524963.203068
204.0,1.796875,-263354.869289,84217.081573,-1634733.633367,29325.667539,-1509280.265484,-1890639.470892,-2298509.096922,-2547430.997781,-3510465.921219,-2468536.492412,-2474183.615945,-2441232.137827,-2449163.967271,23115.816488,-2543101.375473,-2524949.792021
205.0,1.80078125,-263251.87245,84026.108268,-1634730.951158,29193.70284,-1509311.915554,-1890667.365869,-2298369.085594,-2547465.33006,-3510498.644173,-2468562.778063,-2474208.828713,-2441264.324339,-2449194.544458,23239.198117,-2543139.462845,-2524983.051417
206.0,1.8046875,-263431.580476,83859.811289,-1634882.227764,28956.595535,-1509330.691019,-1890700.088823,-2298644.816714,-2547486.787735,-3510525.466266,-2468574.579784,-2474226.531294,-2441291.146432,-2449148.946899,23069.682487,-2543136.244194,-2525001.826883
