Index,Timestamp,Fp1,Fp2,F3,F4,T5,T6,O1,O2,F7,F8,C3,C4,T3,T4,P3,P4
0.0,0.0,0.0,0.0,0.0,0.0,0.0,0.0,0.0,0.0,0.0,0.0,0.0,0.0,0.0,0.0,0.0,0.0
1.0,0.00390625,-475822.326639,-6190.002702,-283233.795552,1759294.898426,-577598.2234,-708233.083276,-599501.681268,-759342.045706,-3821247.079521,-3427332.452218,-3434223.047998,-3192558.132715,-3057440.228157,-1038445.238882,-3386773.155543,-2727412.072112
2.0,0.0078125,-475760.099382,-5808.056093,-283281.538878,1759427.399567,-577614.316656,-708237.374811,-599606.287432,-759372.08645,-3821239.569335,-3427350.154799,-3434236.995487,-3192546.330994,-3057533.0326,-1038200.62139,-3386782.275055,-2727423.873833
3.0,0.01171875,-475693.044149,-5816.102721,-283263.299854,1759709.031547,-577616.998865,-708234.692602,-599481.296477,-759383.888171,-3821226.69473,-3427337.280194,-3434220.902231,-3192525.409761,-3057365.126296,-1037996.773481,-3386776.910636,-2727423.873833
4.0,0.015625,-475731.131522,-6204.486633,-283265.982064,1759476.752219,-577637.383656,-708264.733346,-599417.459895,-759404.272962,-3821238.496451,-3427318.504729,-3434204.272533,-3192523.263994,-3057269.103202,-1038134.102599,-3386765.108915,-2727422.800949
5.0,0.01953125,-475774.583313,-6295.68175,-283333.573739,1759340.495985,-577648.112494,-708279.753718,-599584.829758,-759415.001799,-3821242.787986,-3427305.093682,-3434194.616579,-3192513.071598,-3057437.545948,-1038311.664857,-3386743.65124,-2727412.072112
6.0,0.0234375,-475732.204405,-5990.446328,-283389.900135,1759488.017498,-577657.232005,-708275.462183,-599723.768201,-759430.022172,-3821237.423567,-3427317.431845,-3434198.371672,-3192494.296133,-3057580.239484,-1038007.502318,-3386736.677496,-2727411.53567
7.0,0.02734375,-475690.898382,-6086.469422,-283377.561972,1759508.402289,-577691.027843,-708301.211393,-599622.380688,-759468.645986,-3821256.199033,-3427339.425962,-3434211.782719,-3192493.759691,-3057460.612948,-1037664.179523,-3386731.849519,-2727431.920461
8.0,0.03125,-475705.382312,-6212.533261,-283364.687367,1759242.863565,-577696.392262,-708313.549556,-599516.165199,-759474.546847,-3821254.053265,-3427309.921659,-3434183.887742,-3192476.593551,-3057320.065179,-1038266.60374,-3386684.642635,-2727418.509414
9.0,0.03515625,-475740.787475,-6340.742867,-283425.84174,1759058.864004,-577711.412634,-708335.007231,-599650.275666,-759487.421451,-3821263.172777,-3427295.437729,-3434172.622463,-3192473.3749,-3057450.956994,-1038611.53586,-3386662.648518,-2727413.144995
10.0,0.0390625,-475703.772986,-6030.143026,-283488.605438,1759169.371029,-577711.949076,-708329.10637,-599818.18197,-759494.931638,-3821247.615963,-3427294.364845,-3434166.18516,-3192448.162132,-3057623.154834,-1038496.737301,-3386648.164588,-2727399.733949
11.0,0.04296875,-475645.300823,-5836.487512,-283492.896973,1759157.032866,-577716.240611,-708323.20551,-599757.564039,-759508.879126,-3821231.522707,-3427292.219078,-3434158.138532,-3192422.412923,-3057539.469902,-1038210.813786,-3386644.945937,-2727397.588181
12.0,0.046875,-475669.440707,-6166.935702,-283475.730833,1759088.904749,-577720.532146,-708335.007231,-599625.062898,-759517.998638,-3821223.476079,-3427261.105449,-3434130.243555,-3192402.564574,-3057361.371203,-1038234.95367,-3386626.170471,-2727386.859344
13.0,0.05078125,-475717.720475,-6423.891356,-283526.156369,1759084.076772,-577719.995704,-708345.199626,-599717.867341,-759516.389312,-3821217.038777,-3427227.846054,-3434102.88502,-3192385.934876,-3057447.201901,-1038455.431277,-3386591.838192,-2727364.865227
14.0,0.0546875,-475693.044149,-6180.883191,-283594.284486,1759153.814215,-577718.92282,-708339.298766,-599901.330459,-759522.290173,-3821203.62773,-3427220.872309,-3434095.374834,-3192362.867875,-3057638.711648,-1038409.297277,-3386571.989843,-2727351.990623
15.0,0.05859375,-475617.942288,-5898.178327,-283606.622649,1759279.341612,-577743.599146,-708350.564045,-599881.48211,-759555.013127,-3821209.52859,-3427242.866426,-3434113.613857,-3192357.503457,-3057600.087833,-1038097.624552,-3386593.447518,-2727372.911855
16.0,0.0625,-475598.093939,-6157.279749,-283581.409881,1759098.024261,-577205.547953,-707816.804387,-599313.390173,-759024.47212,-3820657.529909,-3426667.264303,-3433536.938851,-3191787.265752,-3056874.281987,-1038061.682947,-3386031.256441,-2726818.767407
17.0,0.06640625,-475748.297661,-6529.570404,-283652.220208,1758889.348375,-570622.333362,-701320.493379,-594173.204204,-752494.901716,-3814095.772993,-3419996.073246,-3426901.152957,-3185147.724765,-3050558.215446,-1038283.233438,-3379429.266385,-2720229.651955
18.0,0.0703125,-475762.781592,-6319.285192,-283656.511743,1758985.371469,-575551.697678,-706259.513647,-598035.049204,-757380.277798,-3819042.83989,-3424928.656212,-3431902.936924,-3190147.899407,-3055392.629551,-1038325.612345,-3384380.624816,-2725118.783131
19.0,0.07421875,-475644.764381,-5936.265699,-283659.730394,1759197.802448,-577787.587379,-708442.295604,-599762.392016,-759609.730197,-3821239.569335,-3427187.076472,-3434125.95202,-3192351.066154,-3057491.726576,-1038043.980365,-3386609.004332,-2727345.55332
20.0,0.078125,-475575.56338,-6117.58305,-283629.153207,1759057.791121,-577798.316216,-708435.858302,-599582.147548,-759633.333639,-3821227.767614,-3427181.712053,-3434097.520601,-3192319.416084,-3057249.254852,-1037944.73862,-3386589.692424,-2727352.527064
21.0,0.08203125,-475621.160939,-6473.78045,-283652.75665,1758785.815094,-577824.065426,-708461.071069,-599578.928897,-759661.228616,-3821239.569335,-3427171.519658,-3434079.281578,-3192312.978782,-3057216.531899,-1038142.149227,-3386564.479657,-2727357.355041
22.0,0.0859375,-475622.233823,-6400.824356,-283723.566976,1758748.800605,-577824.065426,-708455.706651,-599768.292876,-759663.910826,-3821221.330311,-3427154.88996,-3434056.214578,-3192281.328712,-3057398.922133,-1038232.271461,-3386526.928726,-2727340.725343
23.0,0.08984375,-475543.91331,-6157.81619,-283763.263674,1758919.389119,-577812.800147,-708429.957441,-599843.394738,-759660.155733,-3821184.852265,-3427144.161122,-3434036.366229,-3192234.658269,-3057448.811227,-1037953.858132,-3386503.325284,-2727325.168529
24.0,0.09375,-475478.467402,-6283.880029,-283731.613604,1758833.021979,-577796.706891,-708407.963325,-599705.529178,-759646.744686,-3821147.837776,-3427103.927982,-3433990.232228,-3192184.232734,-3057255.155713,-1037792.925572,-3386465.774353,-2727292.982017
25.0,0.09765625,-475520.84631,-6442.13038,-283739.12379,1758549.244231,-577805.826402,-708424.056581,-599666.905363,-759654.254872,-3821150.519985,-3427075.496563,-3433965.555902,-3192171.894571,-3057189.709805,-1037955.467457,-3386439.488702,-2727282.25318
26.0,0.1015625,-475543.91331,-6451.786334,-283806.715465,1758397.967624,-577850.351077,-708470.727023,-599845.004063,-759703.071082,-3821184.315823,-3427102.318657,-3433991.841554,-3192198.716664,-3057380.146668,-1038094.942343,-3386457.727725,-2727311.221041
27.0,0.10546875,-475484.368263,-6080.568562,-283857.677443,1758609.32572,-577845.523101,-708455.170209,-599958.729739,-759710.581268,-3821159.639497,-3427095.881354,-3433983.794926,-3192163.847943,-3057480.997739,-1037857.298596,-3386445.389562,-2727301.028645
28.0,0.109375,-475427.505425,-6070.376166,-283840.511303,1758844.287258,-577839.085798,-708444.441371,-599841.785412,-759712.727036,-3821133.890287,-3427072.814354,-3433958.582158,-3192130.588547,-3057315.237202,-1037640.039639,-3386426.614097,-2727286.008273
29.0,0.11328125,-475467.738565,-6448.567682,-283841.047745,1758582.503627,-577890.584217,-708500.767768,-599764.001341,-759763.689013,-3821177.87852,-3427086.225401,-3433974.138972,-3192161.165733,-3057210.631038,-1037760.73906,-3386446.998888,-2727317.121901
30.0,0.1171875,-475498.315751,-6561.756916,-283903.811443,1758433.90923,-577901.313055,-708515.251698,-599921.71525,-759775.490734,-3821181.097171,-3427070.132145,-3433962.873693,-3192152.046222,-3057368.344947,-1037942.056411,-3386426.077655,-2727309.611715
31.0,0.12109375,-475453.791076,-6221.116331,-283959.601397,1758572.311231,-577890.584217,-708495.403349,-600069.236764,-759772.808525,-3821151.056427,-3427059.403307,-3433947.316879,-3192112.885965,-3057512.647809,-1037731.234757,-3386404.61998,-2727287.617598
32.0,0.125,-475387.272285,-6103.09912,-283948.87256,1758610.398604,-577879.85538,-708475.555,-599981.260297,-759768.51699,-3821130.671636,-3427045.992261,-3433921.031227,-3192071.579942,-3057390.875505,-1037263.457449,-3386367.605492,-2727269.915017
33.0,0.12890625,-475421.604564,-6460.369403,-283927.414885,1758359.880252,-577903.995264,-708506.132186,-599866.461738,-759792.120432,-3821148.374218,-3427035.263423,-3433911.375274,-3192073.189267,-3057236.380248,-1037718.360152,-3386335.955421,-2727275.279436
34.0,0.1328125,-475477.394519,-6659.925778,-283976.767537,1758163.006087,-577931.890241,-708541.000908,-599986.624716,-759818.406083,-3821169.831892,-3427036.336307,-3433913.521041,-3192082.308779,-3057354.9339,-1038161.997576,-3386323.080817,-2727280.643854
35.0,0.13671875,-475443.598681,-6371.320053,-284039.531236,1758179.099343,-577959.785218,-708564.60435,-600159.895439,-759859.175665,-3821184.315823,-3427062.085517,-3433938.197367,-3192087.673198,-3057531.959716,-1038064.365156,-3386340.783398,-2727299.41932
36.0,0.140625,-475366.351052,-6161.571284,-284041.140561,1758493.454277,-577942.082637,-708536.172931,-600110.006346,-759853.811247,-3821148.910659,-3427041.164284,-3433910.30239,-3192040.466313,-3057449.347669,-1037767.176362,-3386318.25284,-2727279.034529
37.0,0.14453125,-475352.940005,-6469.488915,-284014.85491,1758383.483694,-577958.175893,-708555.484838,-599969.458576,-759870.977386,-3821155.347962,-3427023.461702,-3433895.282018,-3192031.346802,-3057262.129457,-1037772.004339,-3386311.279096,-2727277.425203
38.0,0.1484375,-475415.703704,-6738.24629,-284060.452468,1758155.495901,-577978.024242,-708585.525582,-600051.534182,-759889.21641,-3821169.831892,-3427008.977772,-3433887.23539,-3192035.101895,-3057339.913528,-1037986.044644,-3386297.868049,-2727274.206552
39.0,0.15234375,-475408.193518,-6625.593498,-284126.434818,1758208.603645,-577887.902008,-708491.648256,-600155.603904,-759802.312827,-3821060.934193,-3426908.663143,-3433782.629226,-3191916.0118,-3057427.889994,-1037957.076783,-3386184.142373,-2727169.600388
40.0,0.15625,-475637.790637,-6544.054335,-284229.431657,1758702.130163,-561780.16207,-692514.800133,-587180.684469,-743813.126542,-3805002.010465,-3410705.436552,-3417599.250984,-3175677.916488,-3041956.37011,-1037869.100317,-3370102.151644,-2711105.848683
41.0,0.16015625,-476468.202647,-6482.36352,-283947.263235,1759579.212615,-527361.515446,-658631.522492,-558561.510868,-709586.526106,-3771022.173288,-3376077.5776,-3383351.729316,-3141375.141308,-3008844.495874,-1038413.05237,-3336003.224373,-2676800.391293
42.0,0.1640625,-476915.595164,-6637.395219,-283005.807758,1759536.297266,-522616.150691,-654283.124719,-554102.60607,-704788.590048,-3766675.38484,-3371193.274402,-3378979.191658,-3137023.524883,-3004344.821494,-1038615.290954,-3331651.071507,-2672001.382351
43.0,0.16796875,-477004.108072,-6446.421915,-282517.109217,1759316.892542,-530684.23637,-662386.079119,-559919.781675,-712788.54761,-3774848.076683,-3379165.873428,-3387251.125246,-3145306.72375,-3011634.530024,-1038413.588812,-3339954.118723,-2679969.153401
44.0,0.171875,-476591.047834,-6081.105003,-283167.27676,1758914.561142,-566827.007154,-698270.284923,-587047.110444,-748740.881531,-3810681.32051,-3415405.203748,-3423410.525729,-3181498.310745,-3044198.160672,-1037740.354269,-3376041.635995,-2715959.038253
45.0,0.17578125,-476155.99348,-6208.778168,-283414.040019,1758639.902906,-578250.53671,-709439.004593,-595308.851637,-760161.728878,-3821819.462993,-3426948.359841,-3434610.895468,-3192693.316065,-3053841.239672,-1037637.35743,-3387212.501432,-2727400.270391
46.0,0.1796875,-475989.696501,-6596.089196,-283461.246903,1758348.078531,-578209.767128,-709225.50073,-595168.303867,-760170.84839,-3821624.734595,-3426946.750515,-3434383.980558,-3192452.990109,-3053441.054039,-1037876.074061,-3386916.385521,-2727404.025484
47.0,0.18359375,-475881.871686,-6565.512009,-283556.733555,1758281.559739,-578173.825523,-709082.807193,-595409.702707,-760160.119553,-3821483.650384,-3426936.021678,-3434228.948859,-3192273.818526,-3053537.613575,-1038010.72097,-3386684.642635,-2727384.177135
48.0,0.1875,-475742.396801,-6207.705284,-283618.960812,1758442.492299,-578153.440732,-708979.273913,-595607.113315,-760153.145808,-3821383.335755,-3426945.14119,-3434129.170672,-3192142.390268,-3053617.006971,-1037761.811943,-3386540.876215,-2727374.521181
49.0,0.19140625,-475620.624497,-6273.687634,-283606.086207,1758371.145531,-578150.222081,-708923.483959,-595598.530245,-760160.119553,-3821325.936476,-3426942.995422,-3434060.506113,-3192056.023128,-3053458.756621,-1037601.952267,-3386445.389562,-2727376.666948
50.0,0.1953125,-475599.703264,-6652.415592,-283628.080324,1758093.805086,-578134.665267,-708884.323702,-595707.427944,-760147.78139,-3821282.484684,-3426909.736026,-3433985.940693,-3191985.749243,-3053464.121039,-1037763.957711,-3386352.585119,-2727357.355041
51.0,0.19921875,-475597.021055,-6692.648732,-283709.083046,1757989.735364,-578127.155081,-708853.746516,-596059.333808,-760134.906785,-3821242.787986,-3426883.986817,-3433934.442274,-3191928.886405,-3053793.496346,-1037917.916527,-3386276.410374,-2727334.288041
52.0,0.203125,-475527.283612,-6325.722495,-283770.77386,1758149.59504,-578145.930546,-708843.017679,-596347.939533,-760154.755134,-3821223.476079,-3426910.80891,-3433928.004972,-3191894.554126,-3054067.61814,-1037695.293152,-3386253.879816,-2727343.943995
53.0,0.20703125,-475441.452913,-6283.880029,-283762.727232,1758139.939086,-578118.035569,-708797.956562,-596383.881138,-760133.297459,-3821169.29545,-3426879.695282,-3433870.605692,-3191823.207357,-3054031.140093,-1037468.378242,-3386200.235629,-2727313.366808
54.0,0.2109375,-475430.724076,-6648.660499,-283763.800116,1757877.082572,-578135.201709,-708812.976934,-596435.915999,-760151.000041,-3821173.050543,-3426868.966445,-3433847.00225,-3191810.869194,-3054034.358744,-1037572.984406,-3386177.705071,-2727317.121901
55.0,0.21484375,-475452.718193,-6773.651454,-283831.391791,1757725.269523,-578140.566127,-708814.049818,-596738.469212,-760153.145808,-3821160.71238,-3426848.581654,-3433821.25304,-3191784.583543,-3054339.057724,-1037753.228873,-3386137.471931,-2727301.028645
56.0,0.21875,-475404.438425,-6435.156636,-283899.519908,1757858.307106,-578143.784779,-708797.42012,-597043.168192,-760154.755134,-3821136.572496,-3426850.190979,-3433806.76911,-3191748.105496,-3054648.04824,-1037594.442081,-3386116.550698,-2727291.909133
57.0,0.22265625,-475322.362819,-6284.952913,-283899.519908,1757915.706386,-578120.181336,-708756.114096,-597092.520844,-760134.906785,-3821088.292728,-3426818.540909,-3433763.85376,-3191688.024007,-3054651.266891,-1037318.710961,-3386078.463325,-2727260.259063
58.0,0.2265625,-475301.978028,-6620.22908,-283887.181745,1757676.989755,-578118.035569,-708758.796306,-597089.302193,-760136.51611,-3821079.173217,-3426785.281513,-3433730.594364,-3191662.811239,-3054601.377797,-1037368.600055,-3386048.959023,-2727245.238691
59.0,0.23046875,-475338.456075,-6825.149873,-283945.653909,1757479.579148,-578164.706011,-708810.831167,-597330.164591,-760183.722995,-3821119.406357,-3426805.129862,-3433749.906272,-3191689.633332,-3054848.677498,-1037576.203057,-3386060.760744,-2727271.524342
60.0,0.234375,-475307.878889,-6540.299242,-284014.85491,1757577.74801,-578167.388221,-708801.175213,-597633.254246,-760186.941646,-3821100.630891,-3426804.593421,-3433741.323202,-3191662.274797,-3055158.740897,-1037482.862172,-3386042.52172,-2727260.259063
61.0,0.23828125,-475229.558376,-6294.608867,-284026.120189,1757688.791476,-578158.805151,-708778.108213,-597699.236596,-760183.186553,-3821067.371496,-3426791.182374,-3433717.71976,-3191619.89589,-3055193.073177,-1037174.944541,-3386024.282697,-2727244.165807
62.0,0.2421875,-475218.293097,-6580.532382,-284003.053189,1757411.987473,-578155.050058,-708776.498887,-597652.029711,-760182.650111,-3821052.351123,-3426755.777211,-3433679.632387,-3191589.855145,-3055095.977199,-1037165.288587,-3385993.70551,-2727224.317458
63.0,0.24609375,-475281.593237,-6851.435524,-284049.187189,1757266.611727,-578184.55436,-708814.049818,-597826.90976,-760215.909507,-3821079.173217,-3426757.922978,-3433685.533248,-3191603.266192,-3055270.320805,-1037372.355148,-3385990.486859,-2727233.973412
64.0,0.25,-475264.427097,-6633.640126,-284121.070399,1757610.470964,-578195.81964,-708819.950678,-598124.634996,-760230.393437,-3821071.663031,-3426761.141629,-3433683.38748,-3191588.782261,-3055577.701995,-1037348.215264,-3385981.903789,-2727229.145435
65.0,0.25390625,-475188.788794,-6311.238564,-284144.1374,1757776.231501,-578207.621361,-708818.877795,-598218.512323,-760252.923996,-3821066.835054,-3426777.234885,-3433688.751899,-3191572.689005,-3055656.022508,-1036865.417584,-3385984.585999,-2727237.192063
66.0,0.2578125,-475163.039585,-6523.669544,-284117.315306,1757615.298941,-578219.423082,-708827.997306,-598143.410461,-760265.262159,-3821070.590147,-3426765.433164,-3433668.90355,-3191556.059308,-3055537.468855,-1036901.895631,-3385947.035068,-2727230.754761
67.0,0.26171875,-475234.922795,-6844.46178,-284150.574702,1757360.489054,-578207.084919,-708824.778655,-598260.354788,-760248.632461,-3821046.450263,-3426716.080513,-3433622.769549,-3191521.190586,-3055631.882624,-1037473.742661,-3385883.734928,-2727193.20383
68.0,0.265625,-475299.295819,-6774.724337,-284246.597796,1757389.993356,-573544.868653,-704203.868413,-595084.082494,-755626.112893,-3816383.697556,-3422007.730247,-3428918.710818,-3186797.819948,-3051582.28297,-1037558.500476,-3381201.670313,-2722525.623146
69.0,0.26953125,-475325.045028,-6639.540987,-284257.326634,1757612.080289,-573000.9166,-703708.73257,-594569.634744,-755086.452375,-3815861.739619,-3421438.028984,-3428419.28344,-3186272.106918,-3051062.470801,-1037255.410821,-3380695.269191,-2721966.114279
70.0,0.2734375,-475210.782911,-6468.952473,-284175.251028,1757633.537964,-578271.457943,-708931.530587,-598340.284627,-760317.833462,-3821112.432612,-3426724.127141,-3433702.162946,-3191563.033052,-3055762.774439,-1037150.268215,-3385959.909673,-2727207.68776
71.0,0.27734375,-475212.392236,-6740.9285,-284196.172261,1757376.045868,-578296.670711,-708946.014517,-598368.179604,-760353.775067,-3821115.114822,-3426723.590699,-3433674.267968,-3191548.01268,-3055750.436276,-1037328.903357,-3385940.061324,-2727221.098807
72.0,0.28125,-475211.855794,-6703.914011,-284268.055471,1757319.719472,-578302.571571,-708939.577215,-598618.697955,-760362.358136,-3821095.266473,-3426713.398303,-3433649.591643,-3191515.289726,-3055986.470698,-1037435.118846,-3385900.901067,-2727209.297086
73.0,0.28515625,-475149.092096,-6321.43096,-284316.871681,1757495.135962,-578287.551199,-708904.708493,-598776.948306,-760355.384392,-3821052.887565,-3426702.133024,-3433622.769549,-3191461.645539,-3056116.289629,-1037165.288587,-3385866.032346,-2727187.839411
74.0,0.2890625,-475102.958095,-6349.862379,-284295.950448,1757446.856194,-578309.008874,-708914.364447,-598694.336259,-760382.742927,-3821053.960449,-3426703.74235,-3433617.405131,-3191447.69805,-3055983.788488,-1036970.023748,-3385867.641672,-2727199.10469
75.0,0.29296875,-475127.634421,-6710.351313,-284299.169099,1757181.853912,-578306.863106,-708915.437331,-598692.726933,-760380.060718,-3821043.768054,-3426668.337186,-3433579.8542,-3191422.485283,-3055939.800255,-1037101.988447,-3385832.77295,-2727177.647016
76.0,0.296875,-475149.092096,-6761.313291,-284367.297216,1757074.029097,-578301.498687,-708911.682238,-598926.615587,-760375.232741,-3821027.674797,-3426642.587977,-3433550.886339,-3191392.98098,-3056158.668537,-1037249.50996,-3385793.076252,-2727150.824922
77.0,0.30078125,-475095.447909,-6389.022635,-284423.623612,1757226.378587,-578329.393665,-708926.166168,-599116.516008,-760411.174346,-3821030.357007,-3426669.946512,-3433572.344014,-3191389.762329,-3056338.376562,-1037032.787446,-3385808.633066,-2727168.527504
78.0,0.3046875,-475038.04863,-6310.165681,-284411.285449,1757153.422493,-578333.148758,-708922.411075,-599060.189612,-760427.267602,-3821015.873076,-3426660.290558,-3433561.078735,-3191365.622445,-3056240.207701,-1036782.269094,-3385805.950857,-2727168.527504
79.0,0.30859375,-475050.386792,-6660.998662,-284401.093054,1757173.807284,-578333.148758,-708931.530587,-599012.982728,-760433.704905,-3821011.581541,-3426629.17693,-3433529.965106,-3191346.310538,-3056150.621909,-1036865.417584,-3385779.665205,-2727152.97069
80.0,0.3125,-475082.036863,-6799.937105,-284460.101659,1757123.381749,-578351.924223,-708957.279796,-599207.174683,-760454.626138,-3821025.52903,-3426623.812511,-3433527.819339,-3191348.992747,-3056345.886749,-1037045.125609,-3385767.863484,-2727150.824922
81.0,0.31640625,-475062.724955,-6465.19738,-284526.620451,1757254.273564,-578354.06999,-708948.696726,-599420.678547,-760460.526998,-3821006.217123,-3426619.520976,-3433520.309153,-3191322.707095,-3056559.390612,-1036887.948142,-3385754.98888,-2727136.877434
82.0,0.3203125,-474996.206164,-6282.807145,-284525.547567,1757330.984751,-578352.460665,-708934.212796,-599392.783569,-760465.354975,-3820987.441657,-3426614.156558,-3433505.825222,-3191289.984142,-3056500.918448,-1036434.654764,-3385739.968507,-2727126.685038
83.0,0.32421875,-474974.212047,-6601.990056,-284507.844985,1757102.996958,-578372.845456,-708956.743354,-599303.197778,-760487.349091,-3821008.36289,-3426606.10993,-3433494.559943,-3191291.593467,-3056373.781726,-1036594.514441,-3385710.464205,-2727131.513015
84.0,0.328125,-475011.226536,-6816.566803,-284563.098498,1756904.513467,-578376.064107,-708970.690843,-599453.4015,-760490.567743,-3821004.071355,-3426578.751395,-3433472.029385,-3191277.109537,-3056513.793053,-1037118.618145,-3385672.913274,-2727112.73755
85.0,0.33203125,-474997.279048,-6683.52922,-284627.471522,1756994.635701,-578384.647177,-708972.83661,-599677.097759,-760499.687254,-3820990.660309,-3426579.824278,-3433468.810733,-3191253.506095,-3056740.707963,-1037051.02647,-3385660.038669,-2727103.618038
86.0,0.3359375,-474979.576466,-6584.287475,-284629.617289,1757118.553772,-578396.98534,-708972.83661,-599682.462178,-760511.488975,-3820971.884843,-3426577.678511,-3433463.446315,-3191228.293327,-3056715.495195,-1036730.234233,-3385660.575111,-2727098.253619
87.0,0.33984375,-474958.118791,-6505.966962,-284596.357894,1756919.533839,-578389.475154,-708967.472192,-599567.127176,-760505.588115,-3820953.109378,-3426537.445371,-3433423.213175,-3191196.106815,-3056547.052449,-1036695.901954,-3385629.997925,-2727074.113735
88.0,0.34375,-474995.13328,-6742.537825,-284635.51815,1756605.715347,-578408.787061,-708998.58582,-599660.468061,-760530.264441,-3820972.421285,-3426528.862301,-3433419.458082,-3191202.007675,-3056632.883147,-1036894.921886,-3385618.732645,-2727074.650177
89.0,0.34765625,-474984.940885,-6547.809428,-284705.792034,1756885.738002,-578409.859945,-708998.58582,-599892.747389,-760539.383953,-3820963.301773,-3426520.279231,-3433411.947896,-3191181.086443,-3056859.798057,-1036887.948142,-3385603.175831,-2727062.312014
90.0,0.3515625,-474917.885651,-6213.069703,-284729.931918,1757136.792795,-578426.489642,-709002.877355,-599938.88139,-760562.450953,-3820957.937355,-3426536.372487,-3433422.140291,-3191167.138954,-3056878.037081,-1036565.010138,-3385615.513994,-2727071.431526
91.0,0.35546875,-474906.08393,-6407.261659,-284702.036941,1756988.73484,-578455.457503,-709030.772332,-599810.135342,-760594.637465,-3820968.666192,-3426534.22672,-3433421.603849,-3191170.357605,-3056699.938381,-1036470.59637,-3385624.633506,-2727085.379015
92.0,0.359375,-474961.337443,-6742.537825,-284734.223453,1756728.560535,-578458.676154,-709042.574053,-599855.196459,-760597.319674,-3820963.301773,-3426499.357998,-3433391.026663,-3191156.410117,-3056722.468939,-1036661.033232,-3385592.983436,-2727064.457782
93.0,0.36328125,-474973.139164,-6637.931661,-284808.788873,1756722.659674,-577631.482796,-708219.672229,-599449.109965,-759777.10006,-3820125.379577,-3425651.779849,-3432542.375629,-3190297.566688,-3056155.986328,-1036723.260489,-3384740.040867,-2726220.098283
94.0,0.3671875,-475025.710467,-6408.870984,-284876.380548,1756928.653351,-571144.827741,-701801.681733,-594463.955696,-753347.844285,-3813655.890662,-3419115.2357,-3426032.653574,-3183749.220818,-3049998.706579,-1036312.882461,-3378262.505324,-2719739.344089
95.0,0.37109375,-474983.868001,-6456.61431,-284784.112547,1756947.965258,-576772.102925,-707427.884034,-598476.540861,-758932.204119,-3819298.186219,-3424747.338861,-3431724.838224,-3189449.452096,-3055085.248361,-1036172.334692,-3383899.436462,-2725331.750552
96.0,0.375,-474972.06628,-6680.847011,-284783.039663,1756768.793675,-578556.845016,-709181.512497,-599776.339504,-760708.363141,-3821057.1791,-3426515.451254,-3433467.201408,-3191207.372094,-3056669.897636,-1036744.181722,-3385631.60725,-2727094.498526
97.0,0.37890625,-474970.456954,-6668.508848,-284853.84999,1756698.51979,-578535.923783,-709147.180217,-599963.021274,-760693.87921,-3821012.654425,-3426480.046091,-3433411.411454,-3191143.535512,-3056834.585289,-1036900.822747,-3385563.479133,-2727058.020479
98.0,0.3828125,-474906.08393,-6284.952913,-284906.421293,1756870.717629,-578509.10169,-709099.973333,-600080.502043,-760675.640187,-3820955.791587,-3426458.588416,-3433371.178314,-3191074.870953,-3056923.098197,-1036639.575558,-3385516.272249,-2727024.224642
99.0,0.38671875,-474853.512627,-6288.708006,-284886.572944,1756837.994675,-578525.194946,-709104.264868,-599969.995018,-760698.707187,-3820949.354285,-3426459.124858,-3433360.449476,-3191055.022604,-3056761.092754,-1036425.535253,-3385513.053598,-2727032.807712
100.0,0.390625,-474890.527116,-6659.925778,-284890.864478,1756571.919509,-578548.261946,-709131.623403,-599922.251692,-760721.237745,-3820963.301773,-3426446.786695,-3433347.574871,-3191054.486162,-3056670.97052,-1036552.135533,-3385500.715435,-2727040.317898
101.0,0.39453125,-474918.422093,-6738.24629,-284958.456154,1756449.074322,-578533.241574,-709117.675914,-600111.615671,-760705.680931,-3820934.870355,-3426406.553555,-3433306.268848,-3191014.789464,-3056849.06922,-1036710.922326,-3385449.217015,-2727001.694083
102.0,0.3984375,-474871.215209,-6370.783612,-285016.928317,1756607.324673,-578531.632248,-709104.80131,-600275.766882,-760711.581792,-3820913.949122,-3426406.017113,-3433298.22222,-3190985.285161,-3057000.882268,-1036506.001533,-3385436.878852,-2726988.819479
103.0,0.40234375,-474798.795557,-6266.177448,-285005.663038,1756606.788231,-578549.33483,-709111.775054,-600200.665021,-760738.403885,-3820917.704215,-3426413.5273,-3433302.513755,-3190975.629208,-3056882.865057,-1036240.999251,-3385446.534806,-2727001.157642
104.0,0.40625,-474828.29986,-6618.619754,-284995.470643,1756332.666437,-578564.891644,-709135.914938,-600118.589415,-760760.398002,-3820923.605075,-3426394.215392,-3433285.884057,-3190969.191905,-3056759.483428,-1036315.56467,-3385434.196643,-2726999.011874
105.0,0.41015625,-474885.162697,-6780.088756,-285057.697899,1756446.928554,-578586.349319,-709165.419241,-600275.766882,-760783.465002,-3820936.47968,-3426390.460299,-3433283.738289,-3190973.48344,-3056914.515127,-1036503.319323,-3385425.077131,-2726999.548316
106.0,0.4140625,-474851.36686,-6497.383892,-285123.680249,1756607.324673,-578598.687482,-709170.247217,-600465.667303,-760805.459119,-3820931.651703,-3426400.652695,-3433292.857801,-3190963.291045,-3057100.660455,-1036368.135973,-3385424.54069,-2727004.376293
107.0,0.41796875,-474790.212487,-6505.43052,-285122.070923,1756695.837581,-578592.786621,-709154.153961,-600425.434163,-760801.167584,-3820898.928749,-3426378.658578,-3433268.717917,-3190918.76637,-3057019.121292,-1036065.58276,-3385405.228782,-2726983.991502
108.0,0.421875,-474780.020092,-6578.923056,-285097.931039,1756473.750648,-578598.687482,-709165.419241,-600309.026278,-760805.99556,-3820893.027889,-3426349.690717,-3433239.213614,-3190901.063788,-3056859.261615,-1036081.139574,-3385386.989759,-2726971.116897
109.0,0.42578125,-474837.419371,-6743.074267,-285146.210807,1756261.85611,-578636.774854,-709209.943916,-600421.142628,-760844.082933,-3820923.068633,-3426355.591578,-3433249.942452,-3190920.375695,-3056967.08643,-1036282.841716,-3385390.20841,-2726985.600827
110.0,0.4296875,-474824.008325,-6480.754194,-285216.484692,1756343.931716,-578647.503692,-709214.235451,-600622.308328,-760860.712631,-3820918.777099,-3426362.02888,-3433254.233987,-3190906.964649,-3057168.788572,-1036187.891506,-3385384.30755,-2726981.845734
111.0,0.43359375,-474747.83358,-6189.466261,-285232.041506,1756476.969299,-578645.894366,-709198.142195,-600621.235445,-760865.540608,-3820906.975377,-3426364.71109,-3433244.578033,-3190876.387462,-3057146.794456,-1035648.767429,-3385363.922759,-2726974.87199
112.0,0.4375,-474730.130998,-6437.838845,-285205.755854,1756192.655109,-578653.940994,-709207.798148,-600486.052094,-760879.488096,-3820905.902494,-3426345.935624,-3433222.047475,-3190860.830648,-3056968.695756,-1035943.274014,-3385318.861642,-2726968.434688
113.0,0.44140625,-474803.623534,-6737.709849,-285244.379669,1756190.509342,-578638.38418,-709206.188823,-600555.789537,-760867.686375,-3820884.444819,-3426295.510089,-3433177.5228,-3190827.03481,-3057016.975524,-1036466.304835,-3385264.681013,-2726929.810873
114.0,0.4453125,-474797.186231,-6557.465381,-285316.262879,1756394.357251,-578656.623203,-709222.81852,-600762.856098,-760892.362701,-3820891.418563,-3426304.629601,-3433187.178753,-3190823.816159,-3057231.015829,-1036484.007416,-3385260.92592,-2726933.565966
115.0,0.44921875,-474727.98523,-6242.037564,-285345.23074,1756564.945765,-578700.611436,-709253.395707,-600799.334145,-760947.079771,-3820916.094889,-3426351.300043,-3433226.875451,-3190839.909415,-3057255.692155,-1036162.142296,-3385301.695502,-2726972.726223
116.0,0.453125,-474705.991114,-6544.054335,-285314.117111,1756431.908182,-578736.0166,-709288.264428,-600660.395701,-760981.948493,-3820933.797471,-3426355.591578,-3433232.23987,-3190846.88316,-3057066.864618,-1036047.880178,-3385319.398084,-2726992.03813
117.0,0.45703125,-474755.880208,-6711.960639,-285337.184112,1756167.442342,-578768.203112,-709329.570452,-600679.707608,-761010.916354,-3820957.937355,-3426349.154276,-3433231.703428,-3190858.684881,-3057065.255292,-1036235.634832,-3385316.715874,-2727000.084758
118.0,0.4609375,-474761.244626,-6590.724777,-285409.067322,1756141.693132,-578768.203112,-709329.570452,-600882.482634,-761014.671447,-3820945.06275,-3426334.133903,-3433217.75594,-3190837.227206,-3057264.275225,-1036308.590926,-3385289.357339,-2726982.382176
119.0,0.46484375,-474729.058114,-6221.652773,-285463.24795,1756345.541042,-575849.959356,-706422.055533,-598739.933817,-758130.223528,-3818013.944389,-3423399.796891,-3430276.981625,-3187865.875705,-3054560.071774,-1036008.719922,-3382366.822048,-2724064.674862
120.0,0.46875,-474790.748929,-6392.777728,-285443.399601,1756311.208762,-572000.98896,-702655.160744,-595510.553778,-754312.903203,-3814193.405413,-3419482.698379,-3426426.401904,-3184000.812054,-3050667.649587,-1035766.78464,-3378537.700002,-2720209.267164
121.0,0.47265625,-474782.702301,-6627.202824,-285391.901182,1756159.932156,-578493.008434,-709115.530147,-600372.326418,-760744.841188,-3820684.352003,-3425975.254294,-3432948.998564,-3190551.303691,-3056711.20366,-1036100.987923,-3385014.162661,-2726651.933986
122.0,0.4765625,-474781.092975,-6606.818033,-285457.883532,1756103.069318,-578807.89981,-709407.890964,-600746.2264,-761064.56054,-3820968.666192,-3426278.880391,-3433219.901707,-3190820.061066,-3057123.727456,-1036283.9146,-3385280.774269,-2726953.414315
123.0,0.48046875,-474729.058114,-6213.606145,-285510.991277,1756280.095134,-578798.780298,-709370.876476,-600850.296122,-761066.706308,-3820926.287285,-3426277.807507,-3433191.470288,-3190765.343996,-3057203.120852,-1036033.396248,-3385249.124199,-2726941.612594
124.0,0.484375,-474652.346927,-6184.638284,-285493.825137,1756265.611203,-578810.582019,-709369.803592,-600734.424679,-761087.627541,-3820916.631331,-3426277.807507,-3433179.132125,-3190741.740554,-3057033.06878,-1035805.944896,-3385241.614013,-2726946.977013
125.0,0.48828125,-474652.883369,-6552.100963,-285494.898021,1756001.681805,-578810.582019,-709372.485801,-600667.905887,-761091.382634,-3820905.902494,-3426242.938786,-3433144.263404,-3190718.137111,-3056921.488872,-1035922.352782,-3385205.135966,-2726929.274431
126.0,0.4921875,-474696.871602,-6642.759638,-285559.271045,1755872.399315,-578814.337112,-709378.923104,-600837.957959,-761095.674169,-3820899.465191,-3426222.553995,-3433121.732846,-3190695.606553,-3057082.421432,-1036089.722644,-3385171.87657,-2726911.57185
127.0,0.49609375,-474671.122393,-6339.669983,-285617.206766,1755980.22413,-578817.555763,-709369.803592,-600995.671868,-761102.111471,-3820875.325307,-3426221.481111,-3433113.149776,-3190664.492925,-3057228.870062,-1035895.530688,-3385156.856198,-2726899.770129
128.0,0.5,-474597.629857,-6385.803984,-285607.550813,1756041.378503,-578822.38374,-709368.730708,-600918.960681,-761119.814053,-3820860.841377,-3426215.043809,-3433102.95738,-3190640.353041,-3057108.170641,-1035618.726685,-3385152.028221,-2726898.697245
129.0,0.50390625,-474630.352811,-6456.61431,-285589.311789,1756100.92355,-578846.523624,-709399.307895,-600817.573168,-761139.662402,-3820872.106656,-3426201.09632,-3433090.082775,-3190638.743715,-3056967.08643,-1035680.953941,-3385145.054477,-2726901.379454
130.0,0.5078125,-474690.4343,-6586.969684,-285647.783953,1755949.646944,-578854.570252,-709416.474034,-600952.220077,-761147.172588,-3820871.570214,-3426179.638646,-3433073.453077,-3190625.86911,-3057095.832479,-1035872.463688,-3385120.378151,-2726889.041291
131.0,0.51171875,-474653.419811,-6266.177448,-285713.22986,1756069.809922,-578850.815159,-709399.844336,-601133.000986,-761147.70903,-3820845.821005,-3426168.373366,-3433061.651356,-3190593.682598,-3057276.613388,-1035752.30071,-3385099.456918,-2726870.802268
132.0,0.515625,-474576.708624,-6030.679468,-285720.203605,1756172.270319,-578852.424485,-709388.579057,-601093.840729,-761158.974309,-3820830.800632,-3426167.836925,-3433051.995403,-3190565.787621,-3057213.849689,-1035349.96931,-3385092.483174,-2726865.974291
133.0,0.51953125,-474550.959414,-6325.722495,-285699.818814,1755960.912223,-578882.465229,-709422.911337,-600964.55824,-761195.988798,-3820864.060028,-3426177.492878,-3433054.677612,-3190578.662226,-3057060.427315,-1035306.517518,-3385082.82722,-2726883.676873
134.0,0.5234375,-474606.749369,-6572.485754,-285747.56214,1755744.189709,-578877.637253,-709427.739314,-601058.972008,-761188.478612,-3820851.185423,-3426141.014831,-3433024.636868,-3190557.204551,-3057151.622433,-1035901.431549,-3385029.719475,-2726855.245454
135.0,0.52734375,-474598.702741,-6318.748751,-285815.153815,1755818.218686,-578888.902532,-709435.2495,-601255.309731,-761205.108309,-3820847.966772,-3426145.306366,-3433026.782635,-3190544.866388,-3057357.61611,-1035899.822223,-3385020.063522,-2726853.636128
136.0,0.53125,-474521.455112,-5997.420072,-285833.392839,1755923.361292,-578893.730509,-709427.739314,-601256.382615,-761220.128682,-3820833.482842,-3426149.597901,-3433026.782635,-3190521.262946,-3057337.231319,-1035568.837591,-3385024.355057,-2726854.17257
137.0,0.53515625,-474492.487251,-6228.626517,-285807.643629,1755774.766895,-578891.584741,-709428.275755,-601113.152637,-761224.420217,-3820820.071795,-3426116.874947,-3432996.205449,-3190496.58662,-3057148.940223,-1035509.292544,-3385005.579591,-2726838.615756
138.0,0.5390625,-474562.224694,-6541.908567,-285844.121676,1755792.469477,-578910.360206,-709458.3165,-601164.114614,-761242.65924,-3820831.337074,-3426100.781691,-3432984.940169,-3190496.58662,-3057185.954712,-1035709.38536,-3384989.486335,-2726834.860663
139.0,0.54296875,-474563.834019,-6451.786334,-285917.614212,1755830.020407,-578927.526346,-709472.263989,-601362.061663,-761263.044031,-3820835.092167,-3426103.463901,-3432988.158821,-3190490.149318,-3057395.16704,-1035732.988803,-3384983.049033,-2726832.714895
140.0,0.546875,-474520.382228,-6341.279309,-285942.826979,1756007.582665,-578942.546718,-709474.409756,-601402.831245,-761282.89238,-3820822.754004,-3426112.04697,-3432994.059681,-3190470.300969,-3057420.379808,-1035411.123682,-3384987.87701,-2726837.542872
141.0,0.55078125,-474495.16946,-6167.472144,-285909.031142,1755889.565455,-578975.269672,-709507.669152,-601257.455499,-761319.370427,-3820838.84726,-3426116.338505,-3432998.351216,-3190475.665388,-3057234.23448,-1035285.596286,-3385002.897382,-2726854.709012
142.0,0.5546875,-474553.641624,-6419.06338,-285929.415933,1755626.70894,-578976.342556,-709514.106454,-601259.064824,-761314.006008,-3820831.873516,-3426076.641807,-3432960.800285,-3190452.598387,-3057213.313247,-1035465.840753,-3384965.882893,-2726828.959802
143.0,0.55859375,-474561.15181,-6345.570844,-285998.080492,1755576.283404,-578973.123905,-709513.570012,-601450.574571,-761312.396683,-3820819.535353,-3426059.475667,-3432947.389239,-3190431.140713,-3057411.260296,-1035548.4528,-3384941.206567,-2726809.647895
144.0,0.5625,-474491.950809,-5940.020792,-286038.313632,1755698.59215,-578758.547158,-709287.727986,-601359.379454,-761114.986076,-3820588.86535,-3425851.336223,-3432732.27605,-3190187.059663,-3057273.931178,-1035116.617097,-3384720.192518,-2726592.388939
145.0,0.56640625,-474525.210205,-6034.971003,-286050.115353,1755977.541921,-572333.046476,-702927.673212,-596199.881577,-754746.348232,-3814182.676576,-3419367.899819,-3426258.4956,-3183695.04019,-3050947.1358,-1034995.381236,-3378272.69772,-2720175.471327
146.0,0.5703125,-474589.583229,-6378.83024,-286005.054236,1755813.39071,-575868.734821,-706501.448929,-598715.793933,-758247.704297,-3817751.624316,-3422864.96435,-3429843.536597,-3187300.465977,-3054158.813257,-1035539.86973,-3381812.6776,-2723669.317206
147.0,0.57421875,-474557.396717,-6343.961518,-286038.850074,1755730.778662,-579018.721464,-709613.3482,-601292.860662,-761376.233265,-3820872.106656,-3426020.315411,-3432979.575751,-3190439.187341,-3057286.269341,-1035734.061686,-3384929.941288,-2726790.335988
148.0,0.578125,-474474.248227,-5943.239444,-286090.348493,1755906.195153,-579020.330789,-709585.989664,-601385.665105,-761393.935847,-3820840.456586,-3426034.799342,-3432960.263844,-3190391.444014,-3057359.761877,-1035491.589962,-3384909.556497,-2726793.018197
149.0,0.58203125,-474391.099738,-5874.574885,-286074.255237,1755912.632455,-579026.768092,-709573.651501,-601265.502127,-761411.638428,-3820824.899772,-3426032.117132,-3432941.488378,-3190357.111735,-3057184.345387,-1035248.045355,-3384893.999683,-2726796.236848
150.0,0.5859375,-474400.21925,-6229.699401,-286066.208609,1755655.676801,-579054.663069,-709600.473595,-601176.452777,-761438.996963,-3820836.165051,-3426023.534062,-3432928.077332,-3190357.111735,-3057052.380687,-1035346.214216,-3384882.734404,-2726805.35636
151.0,0.58984375,-474422.749808,-6338.5971,-286124.144331,1755516.201915,-579051.980859,-709601.010037,-601323.97429,-761440.069847,-3820823.290446,-3425997.248411,-3432899.645913,-3190332.435409,-3057192.392015,-1035514.656963,-3384844.11059,-2726784.435127
152.0,0.59375,-474370.714947,-6053.210026,-286181.007168,1755671.770057,-579049.29865,-709584.380339,-601480.615316,-761440.069847,-3820797.004795,-3425990.811108,-3432885.698424,-3190294.884478,-3057342.595737,-1035333.876054,-3384820.507147,-2726767.268988
153.0,0.59765625,-474329.408923,-6065.548189,-286165.986796,1755740.434616,-579073.438534,-709597.791385,-601406.049896,-761464.746173,-3820794.322585,-3426002.61283,-3432890.526401,-3190283.082757,-3057233.161596,-1035039.90591,-3384832.84531,-2726779.070709
154.0,0.6015625,-474343.892854,-6100.953353,-286146.138447,1755504.400194,-579083.094488,-709611.738874,-601290.178453,-761474.402127,-3820789.494609,-3425974.717852,-3432863.704308,-3190268.598827,-3057077.057013,-1035083.894144,-3384811.924078,-2726768.878313
155.0,0.60546875,-474390.026854,-6249.54775,-286197.100424,1755310.74468,-579099.187744,-709633.196549,-601407.659222,-761489.422499,-3820799.687004,-3425959.69748,-3432852.97547,-3190264.307292,-3057196.147108,-1035277.549658,-3384793.685054,-2726761.904569
156.0,0.609375,-474347.111505,-5936.265699,-286259.327681,1755348.832053,-579116.890325,-709643.925386,-601587.903689,-761518.926802,-3820804.514981,-3425973.644969,-3432867.459401,-3190258.406431,-3057380.68311,-1035168.651959,-3384798.513031,-2726772.096964
157.0,0.61328125,-474261.817248,-5665.362557,-286265.228542,1755699.665034,-579106.161488,-709621.394828,-601551.425642,-761517.853918,-3820771.792027,-3425959.161038,-3432847.611052,-3190216.563966,-3057307.727016,-1034845.713955,-3384784.0291,-2726754.930825
158.0,0.6171875,-474251.088411,-5943.775886,-286236.797123,1755580.574939,-579104.552162,-709625.149921,-601416.242291,-761519.999685,-3820758.38098,-3425925.365201,-3432816.497423,-3190195.106291,-3057125.336781,-1034826.938489,-3384760.9621,-2726740.446894
159.0,0.62109375,-474300.441063,-6207.705284,-286278.639588,1755354.732913,-579131.374256,-709657.336433,-601491.880595,-761544.676011,-3820778.229329,-3425916.782131,-3432812.205888,-3190202.080035,-3057194.00134,-1035026.494864,-3384750.769705,-2726743.129104
160.0,0.625,-474272.546085,-5966.842886,-286343.012612,1755421.788147,-579133.520023,-709654.654223,-601684.463225,-761550.04043,-3820766.427608,-3425913.027038,-3432804.15926,-3190180.085919,-3057389.802622,-1034956.220979,-3384731.994239,-2726728.645173
161.0,0.62890625,-474191.006922,-5659.461696,-286360.178752,1755587.012242,-579153.904814,-709664.846619,-601693.046295,-761580.617616,-3820777.692888,-3425945.21355,-3432822.934726,-3190175.257942,-3057389.802622,-1034410.123159,-3384738.431542,-2726747.420638
162.0,0.6328125,-474171.695014,-5967.379328,-286327.99224,1755430.371217,-579138.884442,-709652.508456,-601548.206991,-761565.597244,-3820750.334352,-3425899.615991,-3432774.118516,-3190130.733267,-3057197.756433,-1034677.271208,-3384671.376308,-2726715.770568
163.0,0.63671875,-474223.729876,-6137.967841,-286355.350775,1755177.707097,-579162.487884,-709682.5492,-601576.63841,-761588.664244,-3820765.891166,-3425883.522735,-3432766.60833,-3190132.879035,-3057217.604782,-1035158.996005,-3384650.991517,-2726715.234126
164.0,0.640625,-474231.240062,-5967.379328,-286420.796683,1755110.115422,-579166.779419,-709684.158526,-601769.757482,-761598.320198,-3820759.453864,-3425877.085433,-3432762.316795,-3190117.858662,-3057414.478947,-1035199.765587,-3384635.434703,-2726702.895964
165.0,0.64453125,-474105.176223,-5689.502441,-286419.187357,1755569.846102,-579190.382861,-709697.033131,-601666.224201,-761643.381315,-3820751.407236,-3425884.059177,-3432763.92612,-3190091.573011,-3057253.009946,-1034727.160302,-3384648.309308,-2726715.770568
166.0,0.6484375,-474164.184828,-6043.017631,-286435.280613,1755310.74468,-579202.184582,-709720.100131,-601651.740271,-761653.57371,-3820754.625887,-3425854.018432,-3432740.322678,-3190082.453499,-3057212.776805,-1034895.066606,-3384624.169424,-2726703.968847
167.0,0.65234375,-474170.622131,-6002.784491,-286500.190079,1755263.001354,-579200.038815,-709721.173015,-601833.594064,-761653.037268,-3820741.214841,-3425834.170083,-3432723.156538,-3190060.995824,-3057399.995017,-1034988.407491,-3384594.665121,-2726683.584056
168.0,0.65625,-474112.149967,-5855.799419,-286536.131684,1755455.583984,-579210.23121,-709716.345038,-601922.106972,-761664.838989,-3820720.83005,-3425838.99806,-3432722.083655,-3190033.637289,-3057478.31553,-1034700.338209,-3384592.519354,-2726678.219638
169.0,0.66015625,-474068.161734,-5735.636441,-286507.700265,1755421.788147,-578414.687921,-708920.801749,-601181.817196,-760877.878771,-3819909.193505,-3425016.632678,-3431896.499621,-3189200.006628,-3056544.370239,-1034497.026741,-3383783.028577,-2725870.338186
170.0,0.6640625,-474197.980666,-5913.735141,-286539.886777,1755186.290167,-571937.152378,-702533.38844,-596014.809133,-754453.987414,-3813462.235148,-3418451.120669,-3425368.538543,-3182675.800642,-3050221.329954,-1034568.909951,-3377294.764196,-2719390.656875
171.0,0.66796875,-474228.557852,-5907.297839,-286537.204568,1755183.071516,-577463.576491,-708066.249855,-600305.271185,-759926.767341,-3819005.825401,-3423975.399014,-3430961.481447,-3188277.326617,-3055587.357949,-1034795.824861,-3382824.406961,-2724870.410546
172.0,0.671875,-474126.633898,-5485.654531,-286569.39108,1755424.470356,-579251.000792,-709801.639295,-601781.022761,-761710.436548,-3820754.089445,-3425782.671664,-3432733.885376,-3190023.444894,-3057362.980528,-1034691.218697,-3384592.519354,-2726644.960242
173.0,0.67578125,-474028.465036,-5392.313646,-286554.90715,1755449.146682,-579259.04742,-709786.082481,-601650.667387,-761734.03999,-3820729.949561,-3425784.28099,-3432711.354817,-3189984.821079,-3057181.126735,-1034435.335926,-3384578.035424,-2726651.397544
174.0,0.6796875,-474024.709943,-5751.729697,-286546.32408,1755195.409679,-579261.729629,-709788.76469,-601545.524781,-761741.013734,-3820720.83005,-3425754.776687,-3432671.121677,-3189957.998986,-3057028.777245,-1034522.239509,-3384539.411609,-2726640.132265
175.0,0.68359375,-474059.578664,-5884.230838,-286605.332685,1755039.841537,-579277.822885,-709805.93083,-601681.781016,-761758.179874,-3820727.267352,-3425747.266501,-3432662.002166,-3189947.806591,-3057161.278386,-1034698.192441,-3384516.881051,-2726638.52294
176.0,0.6875,-474000.033617,-5520.523253,-286662.731965,1755188.435935,-579294.989025,-709809.685923,-601838.958483,-761783.929084,-3820719.220724,-3425763.359757,-3432669.512352,-3189933.32266,-3057316.846528,-1034532.968346,-3384517.417493,-2726646.569568
177.0,0.69140625,-473920.103779,-5320.966878,-286656.831104,1755274.803075,-579288.551723,-709789.837574,-601769.757482,-761786.074851,-3820688.107096,-3425749.412268,-3432646.981793,-3189893.625962,-3057208.485271,-1034231.488017,-3384500.787795,-2726633.158521
178.0,0.6953125,-473921.713104,-5644.441324,-286638.592081,1755046.815282,-579314.300932,-709818.268993,-601648.52162,-761811.287619,-3820703.66391,-3425739.219873,-3432638.398723,-3189896.308171,-3057048.089152,-1034262.601645,-3384498.642027,-2726642.278033
179.0,0.69921875,-473956.581826,-5859.554512,-286690.626942,1754801.661349,-579313.76449,-709827.388504,-601756.882877,-761813.433386,-3820699.372375,-3425710.788454,-3432612.649514,-3189878.60559,-3057153.7682,-1034459.47581,-3384465.382631,-2726624.039009
180.0,0.703125,-473922.785988,-5628.348068,-286754.463524,1754927.188745,-579315.373816,-709824.169853,-601939.273112,-761824.698666,-3820685.961328,-3425711.324896,-3432609.967304,-3189857.684357,-3057347.960156,-1034315.172948,-3384450.898701,-2726614.383055
181.0,0.70703125,-473883.625732,-5558.074183,-286754.999966,1755329.520146,-579328.248421,-709823.096969,-601912.98746,-761837.036829,-3820680.59691,-3425720.980849,-3432606.212211,-3189830.325822,-3057306.654132,-1033778.194639,-3384432.123236,-2726612.77373
182.0,0.7109375,-473870.214685,-5539.298718,-286721.74057,1755156.785864,-579336.831491,-709833.289365,-601771.903249,-761847.765666,-3820678.451142,-3425698.986733,-3432584.218095,-3189814.232566,-3057128.018991,-1034170.870086,-3384383.843468,-2726608.482195
183.0,0.71484375,-473904.546965,-5754.411907,-286760.900827,1754919.678559,-579375.455305,-709882.105575,-601837.885599,-761889.07169,-3820713.856305,-3425705.424035,-3432599.238467,-3189838.908892,-3057194.00134,-1034661.177952,-3384384.916351,-2726628.866986
184.0,0.71875,-473906.692732,-5538.225834,-286828.492502,1754970.104095,-579417.834213,-709918.583622,-602029.395345,-761932.523481,-3820737.459747,-3425737.074105,-3432628.206328,-3189852.85638,-3057397.84925,-1034648.303348,-3384403.691817,-2726651.933986
185.0,0.72265625,-473848.757011,-5178.273341,-286849.950176,1755139.083283,-579419.97998,-709908.391226,-602045.488601,-761943.78876,-3820718.14784,-3425740.292757,-3432621.769026,-3189826.034287,-3057395.703482,-1034316.245832,-3384402.082491,-2726646.569568
186.0,0.7265625,-473803.695894,-5367.63732,-286822.591641,1754991.561769,-579435.536794,-709925.020924,-601895.821321,-761963.637109,-3820719.757166,-3425726.88171,-3432608.894421,-3189816.378333,-3057199.902201,-1034220.75918,-3384400.473166,-2726649.251777
187.0,0.73046875,-473862.704499,-5703.449929,-286853.168828,1754641.26523,-579453.775818,-709951.843018,-601912.98746,-761982.412575,-3820733.704654,-3425709.179128,-3432596.019816,-3189818.524101,-3057203.657294,-1034412.805368,-3384385.452793,-2726643.887358
188.0,0.734375,-473862.168057,-5578.995416,-286921.833387,1754804.88,-579456.994469,-709958.28032,-602104.497207,-761996.896505,-3820732.095329,-3425703.81471,-3432594.946932,-3189805.649496,-3057399.995017,-1034465.376671,-3384371.505305,-2726637.986498
189.0,0.73828125,-473792.967056,-5324.721971,-286955.629224,1755249.053866,-579426.953724,-709914.828529,-602166.188021,-761972.220179,-3820676.841817,-3425674.310407,-3432556.85956,-3189742.885797,-3057437.545948,-1034153.167504,-3384336.100142,-2726598.289799
190.0,0.7421875,-473750.588149,-5436.301879,-286922.369829,1755163.759609,-579421.052864,-709906.245459,-602022.421601,-761968.465086,-3820651.092607,-3425640.514569,-3432521.990838,-3189705.871309,-3057244.963318,-1033995.453596,-3384310.887374,-2726576.832125
191.0,0.74609375,-473779.019568,-5590.260695,-286934.707991,1754890.710698,-579433.391027,-709929.312459,-601996.13595,-761978.657482,-3820660.212119,-3425613.692476,-3432500.533164,-3189700.50689,-3057201.511526,-1034164.969226,-3384289.429699,-2726565.566846
192.0,0.75,-473784.920428,-5555.928416,-287004.981876,1754826.874116,-579447.874957,-709945.942157,-602173.698208,-761994.750738,-3820665.040095,-3425608.328057,-3432499.46028,-3189696.215355,-3057391.948389,-1034278.158459,-3384276.555094,-2726560.738869
193.0,0.75390625,-473715.182986,-5139.649527,-287050.579435,1755018.920305,-579440.901213,-709926.093808,-602268.111976,-761996.360063,-3820634.462909,-3425601.354313,-3432490.340768,-3189659.737308,-3057479.388413,-1034002.963782,-3384262.071164,-2726546.79138
194.0,0.7578125,-473677.632055,-5128.92069,-287031.803969,1754991.561769,-579452.166492,-709931.458227,-602137.756602,-762010.843994,-3820625.343397,-3425591.698359,-3432480.684815,-3189640.961843,-3057316.310086,-1033786.777709,-3384259.925396,-2726546.254938
195.0,0.76171875,-473760.244103,-5520.523253,-287055.943853,1754748.553604,-575930.425636,-706450.486952,-599321.973243,-758519.143882,-3817111.112727,-3422012.021781,-3428907.445539,-3186075.232753,-3053842.312556,-1033911.768664,-3380712.43533,-2723015.931012
196.0,0.765625,-473902.937639,-5621.374324,-287116.561784,1754686.862789,-573095.330369,-703701.222384,-597096.812379,-755703.896964,-3814315.714159,-3419114.699258,-3426085.761319,-3183249.79344,-3051216.429617,-1034030.322317,-3377885.386692,-2720161.523838
197.0,0.76953125,-473794.576382,-5161.107202,-287108.515156,1754939.526908,-579353.99763,-709906.781901,-602030.468229,-761917.503109,-3820552.923745,-3425413.59966,-3432394.317674,-3189543.329423,-3057283.587132,-1033964.876409,-3384151.027697,-2726385.85882
198.0,0.7734375,-473689.433776,-5044.162875,-287096.713435,1754988.343118,-579489.717423,-710010.315181,-602009.546996,-762069.316157,-3820654.8477,-3425549.319452,-3432491.950094,-3189626.477912,-3057231.552271,-1033730.987755,-3384261.534722,-2726523.72438
199.0,0.77734375,-473673.34052,-5406.261135,-287088.130365,1754731.387464,-579498.836934,-710013.533832,-601891.529786,-762083.800087,-3820647.873956,-3425527.861777,-3432455.472047,-3189599.655819,-3057064.71885,-1033811.990477,-3384228.811768,-2726521.042171
200.0,0.78125,-473695.871078,-5571.48523,-287148.748296,1754559.189625,-579540.142958,-710052.694089,-602021.348717,-762126.715437,-3820675.232491,-3425543.955033,-3432466.200884,-3189615.749075,-3057185.41827,-1034006.718875,-3384228.811768,-2726545.182055
201.0,0.78515625,-473647.054869,-5295.75411,-287210.975553,1754692.76365,-579537.460749,-710036.600833,-602186.572812,-762129.397646,-3820649.483281,-3425539.127056,-3432452.253396,-3189579.271028,-3057344.205063,-1033813.599803,-3384202.526117,-2726531.234566
202.0,0.7890625,-473598.775101,-5287.17104,-287208.829785,1754766.256185,-579562.137075,-710046.793228,-602124.881998,-762155.683298,-3820649.483281,-3425557.36608,-3432452.253396,-3189562.64133,-3057260.520132,-1033327.583471,-3384189.651512,-2726542.499845
203.0,0.79296875,-473618.62345,-5333.305041,-287183.080576,1754481.941996,-579591.104936,-710077.906856,-601994.526624,-762186.796926,-3820669.868072,-3425555.756754,-3432444.743209,-3189563.177772,-3057095.296037,-1033785.168384,-3384163.36586,-2726553.765125
204.0,0.796875,-473662.611683,-5518.377485,-287235.115437,1754550.606555,-579577.693889,-710075.224647,-602094.304811,-762177.677414,-3820652.165491,-3425514.450731,-3432408.265162,-3189534.746353,-3057186.491154,-1034188.036226,-3384114.013209,-2726523.187938
205.0,0.80078125,-473628.815845,-5245.865017,-287304.316438,1754692.76365,-579597.542238,-710088.635694,-602282.595907,-762203.426624,-3820656.993467,-3425530.543987,-3432421.139767,-3189531.527702,-3057386.58397,-1034123.12676,-3384116.695418,-2726530.698124
206.0,0.8046875,-473553.177542,-4941.166036,-287319.873252,1754832.238535,-579585.740517,-710062.886484,-602265.966209,-762199.671531,-3820625.343397,-3425517.669382,-3432401.291418,-3189488.075911,-3057350.642365,-1033799.652314,-3384098.992836,-2726514.604868
207.0,0.80859375,-473545.130914,-5201.876784,-287296.26981,1754641.801672,-579605.052424,-710084.880601,-602120.590463,-762223.274973,-3820632.317142,-3425503.721893,-3432390.562581,-3189481.638608,-3057168.252131,-1033759.419174,-3384095.774185,-2726518.359961
208.0,0.8125,-473591.264914,-5510.867299,-287338.648717,1754393.96553,-579634.556727,-710123.504415,-602174.771091,-762251.706392,-3820653.238374,-3425496.748149,-3432388.953255,-3189493.976771,-3057224.042085,-1033967.022177,-3384090.946208,-2726526.406589
209.0,0.81640625,-473576.244542,-5324.721971,-287409.995486,1754424.542716,-579639.921145,-710128.332392,-602367.890163,-762264.580997,-3820646.801072,-3425493.529498,-3432383.588837,-3189477.347073,-3057430.035762,-1033977.751014,-3384077.535162,-2726518.359961
210.0,0.8203125,-473501.679123,-4960.477943,-287437.890463,1754595.13123,-579623.291448,-710095.609438,-602394.712257,-762254.925043,-3820609.786583,-3425476.8998,-3432361.058278,-3189429.067305,-3057440.764599,-1033658.031661,-3384056.613929,-2726494.220077
211.0,0.82421875,-473479.148564,-5140.722411,-287413.214137,1754458.338554,-579646.358448,-710115.994229,-602246.654301,-762279.601369,-3820617.296769,-3425470.998939,-3432354.620976,-3189426.921538,-3057254.082829,-1033555.034823,-3384060.369022,-2726502.803147
212.0,0.828125,-473531.183425,-5500.674903,-287443.791323,1754147.738713,-579656.014401,-710139.597671,-602255.237371,-762289.793764,-3820620.51542,-3425442.031079,-3432330.481092,-3189419.947793,-3057253.546387,-1033749.226779,-3384035.692696,-2726491.001426
213.0,0.83203125,-473533.329193,-5431.473903,-287516.210975,1754072.636851,-579676.399192,-710162.664671,-602444.064909,-762319.834509,-3820634.999351,-3425450.077707,-3432342.282813,-3189421.020677,-3057455.248529,-1033828.620175,-3384036.76558,-2726497.97517
214.0,0.8359375,-473493.632495,-5282.879506,-287552.689022,1754610.688044,-579680.154285,-710154.618043,-602513.265909,-762326.271811,-3820607.104374,-3425446.322614,-3432335.84551,-3189386.688398,-3057510.502042,-1033536.259357,-3384028.18251,-2726484.027682
215.0,0.83984375,-473480.75789,-5232.45397,-287524.794045,1754587.621044,-579669.425448,-710137.988345,-602373.254582,-762313.933648,-3820576.527187,-3425406.625915,-3432295.075929,-3189344.30949,-3057327.038923,-1033376.399681,-3383996.53244,-2726455.596263
216.0,0.84375,-473511.335076,-5433.083228,-287539.277975,1754305.452622,-579693.02889,-710172.320625,-602336.240093,-762339.146416,-3820598.521304,-3425394.287752,-3432288.638626,-3189352.89256,-3057269.639643,-1033543.769544,-3383990.095137,-2726461.497123
217.0,0.84765625,-473526.355449,-5445.421391,-287610.624744,1754219.621923,-579701.075518,-710185.731672,-602513.265909,-762349.875253,-3820596.375536,-3425383.022473,-3432278.982673,-3189339.481513,-3057450.956994,-1033675.734243,-3383969.710346,-2726450.768286
218.0,0.8515625,-473463.055308,-5047.381526,-287659.440954,1754396.111297,-579731.652705,-710204.507137,-602622.163608,-762390.108393,-3820606.567932,-3425415.745427,-3432306.341208,-3189343.236607,-3057558.245368,-1033405.367542,-3383995.995998,-2726474.371728
219.0,0.85546875,-473416.921308,-5025.923851,-287644.957023,1754378.945157,-579744.527309,-710210.407997,-602502.00063,-762408.883859,-3820608.177258,-3425417.891195,-3432299.367464,-3189330.362002,-3057412.869622,-1032997.135281,-3383984.730719,-2726475.981054
220.0,0.859375,-473466.810401,-5418.062856,-287650.321442,1754105.359805,-579348.633212,-709824.706295,-602125.41844,-762015.135528,-3820209.60095,-3424983.373282,-3431865.922435,-3188910.864462,-3056935.43636,-1033434.871845,-3383533.046667,-2726061.311491
221.0,0.86328125,-473609.503938,-5567.730137,-287753.31828,1754006.11806,-572698.363387,-703253.293425,-597033.512239,-755415.827682,-3813577.57015,-3418254.246504,-3425167.909285,-3182202.658916,-3050675.159773,-1033858.66092,-3376861.85561,-2719406.750131
222.0,0.8671875,-473583.218286,-5169.15383,-287752.245397,1754240.543156,-577103.623999,-707668.746432,-600454.938466,-759787.292455,-3817998.924017,-3422667.017301,-3429654.172618,-3186671.219667,-3054972.595569,-1033674.124917,-3381303.057826,-2723778.751347
223.0,0.87109375,-473463.055308,-5013.585688,-287722.741094,1754377.335832,-579769.740077,-710283.900533,-602395.78514,-762443.216138,-3820628.562049,-3425350.835961,-3432305.804766,-3189311.050094,-3057343.668621,-1033420.924356,-3383959.517951,-2726434.67503
224.0,0.875,-473441.597634,-5383.194135,-287714.158024,1754117.161526,-579786.906217,-710292.483603,-602256.846697,-762470.574673,-3820625.879839,-3425339.03424,-3432272.008928,-3189286.91021,-3057152.158875,-1033497.635543,-3383936.450951,-2726442.185216
225.0,0.87890625,-473468.419727,-5580.0683,-287773.703071,1753924.578896,-579788.515543,-710291.947161,-602371.645256,-762477.011976,-3820614.61456,-3425316.503682,-3432239.285974,-3189260.088117,-3057250.327736,-1033705.774987,-3383894.072043,-2726426.628402
226.0,0.8828125,-473421.212843,-5263.567598,-287839.685421,1754039.377456,-579780.468915,-710264.588626,-602540.624445,-762472.720441,-3820582.428048,-3425305.238403,-3432215.14609,-3189215.563442,-3057408.578087,-1033595.267963,-3383857.593996,-2726405.170727
227.0,0.88671875,-473345.038098,-5037.725572,-287846.659165,1754137.009875,-579770.812961,-710240.985184,-602492.881118,-762472.183999,-3820548.095768,-3425290.754472,-3432188.323997,-3189168.356558,-3057322.747388,-1033296.469843,-3383834.526996,-2726388.004588
228.0,0.890625,-473358.985586,-5360.127134,-287830.029467,1753909.022082,-579789.588426,-710264.588626,-602360.379977,-762492.56879,-3820555.605955,-3425274.661216,-3432172.230741,-3189163.528581,-3057149.476665,-1033311.490215,-3383825.407484,-2726391.759681
229.0,0.89453125,-473409.947563,-5632.103161,-287879.918561,1753678.888521,-579793.343519,-710275.853905,-602446.210676,-762495.250999,-3820553.460187,-3425245.156913,-3432146.481531,-3189147.971767,-3057232.088713,-1033525.53052,-3383793.220972,-2726372.447774
230.0,0.8984375,-473387.953447,-5435.228996,-287950.728887,1753671.378335,-579801.926589,-710277.999673,-602637.183981,-762510.807814,-3820544.877117,-3425245.693355,-3432145.94509,-3189131.878511,-3057430.572203,-1033487.979589,-3383780.346367,-2726369.765564
231.0,0.90234375,-473338.600795,-5360.127134,-287966.822143,1753897.756803,-579823.384264,-710287.655626,-602631.819562,-762539.775674,-3820538.439815,-3425260.177286,-3432156.137485,-3189117.931022,-3057408.041645,-1033174.161097,-3383793.220972,-2726382.103727
232.0,0.90625,-473323.043981,-5366.564437,-287939.463608,1753983.587501,-579834.649543,-710305.89465,-602485.370932,-762556.941814,-3820539.512699,-3425244.08403,-3432137.36202,-3189106.129301,-3057220.286992,-1033125.881329,-3383787.320112,-2726381.567285
233.0,0.91015625,-473366.495772,-5609.572602,-287979.160306,1753732.532708,-579867.372497,-710346.12779,-602530.432049,-762590.737652,-3820567.944118,-3425244.08403,-3432141.653555,-3189120.613232,-3057259.447248,-1033341.53096,-3383786.247228,-2726392.832564
234.0,0.9140625,-473377.761051,-5455.077345,-288051.043517,1753742.188661,-579877.028451,-710350.419325,-602724.624005,-762599.857163,-3820559.89749,-3425238.183169,-3432133.606927,-3189102.91065,-3057461.14939,-1033372.644588,-3383768.544646,-2726383.176611
235.0,0.91796875,-473318.216004,-5088.68755,-288081.620703,1753911.167849,-579864.690288,-710325.742999,-602763.247819,-762595.565628,-3820524.492326,-3425222.626355,-3432115.367903,-3189061.068185,-3057479.388413,-1033063.117631,-3383750.305623,-2726364.401146
236.0,0.921875,-473267.790469,-5254.448087,-288056.407935,1753781.88536,-579871.664032,-710330.570976,-602617.335632,-762607.903791,-3820519.66435,-3425203.314448,-3432098.201763,-3189045.51137,-3057288.951551,-1032952.074164,-3383743.331879,-2726361.182494
237.0,0.92578125,-473318.216004,-5629.420952,-288082.157145,1753499.180496,-579874.346241,-710341.299813,-602615.726306,-762608.440233,-3820514.836373,-3425166.836401,-3432064.942368,-3189028.345231,-3057269.639643,-1033148.411888,-3383709.536041,-2726337.04261
238.0,0.9296875,-473352.011842,-5572.021672,-288154.040355,1753450.364286,-579885.61152,-710356.320185,-602798.116541,-762622.924164,-3820516.98214,-3425161.471982,-3432057.968623,-3189017.079951,-3057464.368041,-1033246.044307,-3383694.515669,-2726329.532424
239.0,0.93359375,-473290.321027,-5180.419109,-288195.882821,1753572.13659,-579882.929311,-710339.154045,-602876.973495,-762629.897908,-3820498.206675,-3425164.690633,-3432054.21353,-3188984.893439,-3057539.469902,-1032823.328116,-3383680.56818,-2726320.412912
240.0,0.9375,-473233.994631,-5249.083668,-288176.570913,1753561.407752,-579890.439497,-710345.054906,-602738.035052,-762649.746257,-3820499.816,-3425159.862657,-3432044.557577,-3188971.482393,-3057371.563598,-1032657.031138,-3383652.136761,-2726323.095122
241.0,0.94140625,-473287.102376,-5641.222673,-288190.518402,1753522.783938,-579893.658148,-710357.929511,-602690.828167,-762651.355583,-3820494.451582,-3425123.921051,-3432012.907507,-3188953.243369,-3057296.998179,-1033300.224936,-3383603.320551,-2726302.710331
242.0,0.9453125,-473325.189748,-5678.773603,-288257.573635,1753429.443053,-579915.115823,-710383.67872,-602858.734472,-762674.959025,-3820506.789745,-3425122.848168,-3432013.98039,-3188953.779811,-3057469.196018,-1033515.338125,-3383594.737481,-2726304.319656
243.0,0.94921875,-473275.837097,-5432.010345,-288309.072055,1753596.812915,-579936.037056,-710392.798232,-602971.923706,-762702.31756,-3820507.326187,-3425143.232959,-3432030.610088,-3188946.806067,-3057585.067461,-1033286.277447,-3383607.612086,-2726315.048494
244.0,0.953125,-473233.994631,-5422.890833,-288290.833031,1753587.693404,-579933.354847,-710381.532953,-602858.734472,-762699.098909,-3820482.113419,-3425118.020191,-3432002.715111,-3188911.400904,-3057431.108645,-1033059.89898,-3383587.227295,-2726297.345912
245.0,0.95703125,-473252.233655,-5589.724253,-288288.687264,1753312.498726,-579965.541359,-710421.229651,-602764.320703,-762732.894746,-3820508.39907,-3425114.265098,-3432004.324437,-3188922.129741,-3057316.846528,-1033177.91619,-3383592.591714,-2726313.97561
246.0,0.9609375,-473317.14312,-5732.954232,-288368.08066,1753174.096724,-577395.984816,-707879.568086,-600889.456378,-760187.478088,-3817935.623877,-3422503.938973,-3429395.071196,-3186312.8765,-3054970.449802,-1033378.545449,-3380993.530869,-2723730.471579
247.0,0.96484375,-473399.755168,-5440.056973,-288438.890986,1753345.758122,-572876.998529,-703438.365869,-597381.126568,-755708.188499,-3813438.095264,-3417928.089849,-3424880.912886,-3181766.531678,-3050722.903099,-1033225.123075,-3376490.637838,-2719204.511548
248.0,0.96875,-473298.367655,-5214.751388,-288368.08066,1753542.632287,-579545.507377,-710062.886484,-602431.726746,-762323.589602,-3820099.093926,-3424627.712325,-3431608.430339,-3188490.294038,-3056991.226314,-1032986.942886,-3383179.531476,-2725840.297442
249.0,0.97265625,-473267.790469,-5560.756393,-288353.060288,1753325.909773,-579976.270196,-710473.800954,-602600.705934,-762762.399049,-3820505.180419,-3425040.23612,-3431989.304064,-3188880.823717,-3057189.709805,-1033065.263398,-3383574.352691,-2726263.013633
250.0,0.9765625,-473295.149004,-5783.916209,-288410.996009,1753120.452538,-580004.165173,-710497.940838,-602692.973935,-762798.340654,-3820517.518582,-3425042.91833,-3431978.038785,-3188875.459299,-3057273.394736,-1033285.204564,-3383554.504341,-2726275.351796
251.0,0.98046875,-473254.915864,-5494.237601,-288480.19701,1753218.084957,-580007.383824,-710487.212001,-602861.953123,-762807.996608,-3820495.524466,-3425041.845446,-3431963.554855,-3188841.663461,-3057435.40018,-1033199.910307,-3383528.21869,-2726266.768726
252.0,0.984375,-473183.032654,-5251.229435,-288489.852964,1753323.764005,-579982.707498,-710445.905977,-602822.792867,-762788.684701,-3820445.635372,-3425013.414027,-3431920.103064,-3188777.290437,-3057354.9339,-1032900.039303,-3383488.521992,-2726235.118656
253.0,0.98828125,-473178.204677,-5560.219951,-288472.150382,1753104.895723,-580000.946522,-710461.462791,-602683.854423,-762807.996608,-3820450.463349,-3424997.320771,-3431901.86404,-3188767.098041,-3057172.007224,-1032905.940164,-3383477.793154,-2726237.800865
254.0,0.9921875,-473245.796352,-5854.726536,-288523.112359,1752862.424,-580022.940638,-710492.576419,-602763.247819,-762830.527166,-3820465.483721,-3424984.982608,-3431894.353854,-3188769.780251,-3057244.426876,-1033135.000841,-3383461.699898,-2726239.946632
255.0,0.99609375,-473233.994631,-5644.441324,-288596.068453,1752828.628162,-580042.252546,-710504.914582,-602954.757566,-762858.958585,-3820468.702372,-3424996.784329,-3431902.400482,-3188764.415832,-3057441.837483,-1033123.735562,-3383459.017689,-2726245.311051
0.0,1.0,-473163.720746,-5330.08639,-288620.208337,1753158.003468,-580070.147523,-710523.690048,-602957.976217,-762900.264609,-3820476.749,-3425026.825074,-3431926.540366,-3188765.488716,-3057428.962878,-1032815.81793,-3383483.157573,-2726271.060261
1.0,1.00390625,-473156.21056,-5566.657253,-288599.823546,1753129.572049,-580076.048383,-710531.200234,-602813.673355,-762908.847679,-3820468.702372,-3425002.68519,-3431901.86404,-3188744.031041,-3057241.744666,-1032758.41865,-3383468.137201,-2726262.477191
2.0,1.0078125,-473213.60984,-5918.026676,-288634.692268,1752857.596023,-580070.683965,-710538.173978,-602849.078518,-762904.019702,-3820461.728628,-3424962.988491,-3431865.385993,-3188721.500483,-3057264.275225,-1032975.141165,-3383429.513386,-2726237.264423
3.0,1.01171875,-473217.901375,-5795.71793,-288709.794129,1752847.403627,-580067.465313,-710533.882443,-603042.734032,-762902.946818,-3820445.635372,-3424946.358794,-3431847.683412,-3188696.287715,-3057464.368041,-1033031.467561,-3383398.9362,-2726217.416074
4.0,1.015625,-473152.991909,-5427.182368,-288747.34506,1753017.455699,-580055.663592,-710504.914582,-603090.477358,-762899.191725,-3820409.693767,-3424934.020631,-3431832.126597,-3188655.518133,-3057497.090995,-1032730.523673,-3383382.306502,-2726198.104167
5.0,1.01953125,-473115.440978,-5574.703881,-288725.350943,1752897.292721,-580074.9755,-710523.690048,-602945.638054,-762924.404493,-3820416.131069,-3424929.192654,-3431827.835062,-3188652.299482,-3057311.482109,-1032607.678486,-3383387.670921,-2726207.223678
6.0,1.0234375,-473170.694491,-5963.624235,-288751.100153,1752613.514973,-580099.651825,-710558.558769,-602932.763449,-762948.544377,-3820434.906535,-3424914.172282,-3431817.642667,-3188656.054575,-3057277.686271,-1032804.016209,-3383379.624293,-2726209.369446
7.0,1.02734375,-473191.079282,-5954.504723,-288826.202014,1752535.730903,-580108.771337,-710568.751165,-603117.835893,-762959.809656,-3820433.297209,-3424904.516328,-3431809.596039,-3188643.716412,-3057465.440925,-1032924.715629,-3383361.385269,-2726199.713492
8.0,1.03125,-473157.283444,-5807.519651,-288873.408899,1752612.978531,-580115.745081,-710564.996071,-603208.494569,-762974.830028,-3820412.375976,-3424906.125654,-3431808.523155,-3188616.357877,-3057538.397019,-1032651.666719,-3383355.484409,-2726193.812632
9.0,1.03515625,-473131.534234,-5733.490674,-288849.269015,1752823.800185,-580105.016244,-710549.975699,-603076.52987,-762971.074935,-3820391.991185,-3424879.30356,-3431772.045108,-3188577.197621,-3057367.808505,-1032286.886249,-3383319.542804,-2726173.964283
10.0,1.0390625,-473166.939398,-5956.65049,-288856.242759,1752645.701485,-580114.672198,-710569.287606,-603019.13059,-762978.585121,-3820399.501371,-3424852.481467,-3431746.832341,-3188567.541667,-3057281.977806,-1032702.092254,-3383272.335919,-2726161.089678
11.0,1.04296875,-473198.589468,-6028.533701,-288922.76155,1752525.002065,-580147.395152,-710607.374979,-603180.06315,-763014.526727,-3820423.641255,-3424864.81963,-3431762.925597,-3188582.025597,-3057443.446808,-1033112.470283,-3383269.117268,-2726176.11005
12.0,1.046875,-473150.846142,-5659.461696,-288975.332853,1752681.106649,-580150.613803,-710596.646142,-603301.299012,-763025.255564,-3820405.402232,-3424869.647607,-3431761.852713,-3188557.885713,-3057558.78181,-1032904.86728,-3383263.216408,-2726170.20919
13.0,1.05078125,-473110.07656,-5596.161556,-288960.848923,1752687.007509,-580149.004477,-710589.135955,-603194.54708,-763026.864889,-3820383.944557,-3424853.017909,-3431739.858596,-3188525.162759,-3057411.260296,-1032671.515068,-3383250.341803,-2726158.94391
14.0,1.0546875,-473154.601235,-5985.618351,-288957.630272,1752412.885715,-580183.336757,-710631.514863,-603095.841777,-763062.270053,-3820412.375976,-3424848.189932,-3431737.176387,-3188536.428039,-3057284.660016,-1032779.876325,-3383254.633338,-2726173.964283
15.0,1.05859375,-473198.053026,-6149.769562,-289022.539738,1752242.297201,-580202.112222,-710657.800514,-603230.488685,-763085.337053,-3820424.177697,-3424839.07042,-3431735.03062,-3188538.037364,-3057427.353552,-1032978.896258,-3383242.831617,-2726172.891399
16.0,1.0625,-473208.245421,-5856.335861,-289105.151785,1752387.136506,-576504.418433,-706988.538145,-600519.847932,-759424.657753,-3816721.655932,-3421115.627422,-3428013.196947,-3184786.162947,-3054035.431628,-1032830.838302,-3379534.945433,-2722472.515401
17.0,1.06640625,-473252.770096,-5790.353512,-289097.105157,1752471.89432,-574091.502916,-704638.922768,-598392.319488,-757032.663468,-3814333.41674,-3418656.041462,-3425623.34843,-3182373.783871,-3051538.294737,-1032478.932438,-3377147.779125,-2720051.553256
18.0,1.0703125,-473203.953887,-5979.717491,-289022.003296,1752452.582413,-580114.672198,-710622.931793,-602893.066751,-763004.870773,-3820348.002952,-3424685.648046,-3431664.756735,-3188438.259177,-3057128.018991,-1032746.080487,-3383155.928034,-2726037.708049
19.0,1.07421875,-473229.166654,-6204.486633,-289076.183924,1752277.165923,-580249.319106,-710741.485446,-603038.978939,-763147.56431,-3820456.900651,-3424798.300838,-3431748.978108,-3188531.600062,-3057284.660016,-1033012.155653,-3383242.295175,-2726157.871027
20.0,1.078125,-473195.907258,-5938.947909,-289146.457809,1752360.314412,-580252.001316,-710727.537957,-603200.984383,-763162.584682,-3820432.760767,-3424801.519489,-3431731.811968,-3188494.585573,-3057444.519692,-1032948.319071,-3383211.717988,-2726153.04305
21.0,1.08203125,-473128.852025,-5679.846487,-289160.405297,1752472.967204,-580237.517385,-710694.278561,-603167.188545,-763157.756705,-3820392.527627,-3424785.426233,-3431699.625456,-3188439.332061,-3057378.537342,-1032646.838742,-3383178.995035,-2726133.731143
22.0,1.0859375,-473139.580862,-5980.790374,-289141.629832,1752259.999783,-580248.782664,-710706.080282,-603025.567892,-763172.240635,-3820389.845418,-3424765.577884,-3431675.485572,-3188422.702363,-3057189.173363,-1032639.328556,-3383160.756011,-2726132.658259
23.0,1.08984375,-473197.516584,-6301.046169,-289189.373158,1752004.653454,-580270.776781,-710735.048143,-603093.159567,-763194.234752,-3820405.938674,-3424753.239721,-3431665.293177,-3188423.238805,-3057247.645527,-1032868.389233,-3383145.199197,-2726134.267585
24.0,1.09375,-473194.834375,-6123.483911,-289263.402136,1752033.621315,-580265.948804,-710723.246422,-603288.424407,-763193.161868,-3820382.871673,-3424737.146465,-3431645.98127,-3188391.052293,-3057442.910366,-1032877.508745,-3383114.622011,-2726112.273468
25.0,1.09765625,-473129.924909,-5798.936581,-289291.297113,1752176.314852,-580254.147083,-710697.497213,-603306.663431,-763188.870333,-3820348.002952,-3424724.808302,-3431625.060037,-3188347.06406,-3057438.08239,-1032572.273323,-3383093.164336,-2726091.888677
26.0,1.1015625,-473099.347722,-6019.950631,-289269.302996,1751934.916012,-580275.604758,-710719.491329,-603159.678359,-763217.838194,-3820357.658906,-3424718.371,-3431616.476967,-3188342.772525,-3057247.109085,-1032501.462996,-3383095.310103,-2726102.617514
27.0,1.10546875,-473176.058909,-6389.559077,-289305.781043,1751900.583732,-580301.890409,-710757.578702,-603181.672476,-763247.878939,-3820381.79879,-3424710.324372,-3431611.64899,-3188352.428478,-3057255.155713,-1032716.039743,-3383089.945685,-2726109.591259
28.0,1.109375,-473198.589468,-6295.68175,-289378.737137,1751969.784733,-580306.718386,-710761.870237,-603376.937315,-763255.389125,-3820373.21572,-3424700.131977,-3431603.06592,-3188335.262339,-3057452.029878,-1032793.823814,-3383068.48801,-2726097.789538
29.0,1.11328125,-473139.580862,-5928.219071,-289416.288068,1752137.691037,-580309.400595,-710751.141399,-603440.237455,-763268.26373,-3820354.976696,-3424703.350628,-3431604.138804,-3188309.513129,-3057499.236762,-1032506.290973,-3383065.805801,-2726094.570886
30.0,1.1171875,-473090.228211,-6054.819352,-289394.293951,1752032.548431,-580305.10906,-710745.240539,-603299.153244,-763270.409497,-3820336.737673,-3424675.455651,-3431575.170943,-3188280.008826,-3057312.554993,-1032371.107623,-3383047.566777,-2726079.014072
31.0,1.12109375,-473142.263072,-6449.640566,-289414.1423,1751742.869823,-580313.69213,-710761.870237,-603276.622686,-763275.237474,-3820339.419882,-3424643.269139,-3431547.275966,-3188264.988454,-3057269.103202,-1032558.862276,-3383020.208242,-2726062.920816
32.0,1.125,-473187.86063,-6454.468543,-289491.389929,1751647.919613,-580334.076921,-710783.864353,-603460.085804,-763297.23159,-3820345.857185,-3424643.269139,-3431548.34885,-3188264.988454,-3057460.612948,-1032691.363417,-3383008.942963,-2726063.457258
33.0,1.12890625,-473135.825769,-6076.813469,-289542.888348,1751755.744428,-580370.554968,-710809.077121,-603556.108899,-763347.120684,-3820364.096208,-3424682.429395,-3431585.899781,-3188277.326617,-3057560.391135,-1032441.381507,-3383042.202359,-2726097.789538
34.0,1.1328125,-473083.790908,-6097.734701,-289526.795092,1751954.227919,-580370.018526,-710804.249144,-603429.508618,-763355.703754,-3820347.46651,-3424662.044604,-3431563.369222,-3188249.43164,-3057390.875505,-1032247.725993,-3383030.937079,-2726089.74291
35.0,1.13671875,-473129.388467,-6494.701683,-289531.623069,1751731.068102,-580377.528712,-710818.733075,-603361.380501,-763362.677498,-3820346.393626,-3424630.930976,-3431535.474245,-3188237.093477,-3057298.071062,-1032394.174623,-3383007.333637,-2726076.331863
36.0,1.140625,-473166.939398,-6588.57901,-289597.605419,1751597.494077,-580366.263433,-710812.295772,-603518.021526,-763350.875777,-3820328.154603,-3424597.135138,-3431504.897059,-3188204.906965,-3057459.003622,-1032569.054671,-3382965.491172,-2726043.072467
37.0,1.14453125,-473133.14356,-6384.194658,-289653.931815,1751752.525777,-580368.409201,-710805.322028,-603649.986225,-763357.849521,-3820309.379138,-3424597.135138,-3431498.996198,-3188178.084872,-3057592.577647,-1032365.743204,-3382954.762334,-2726034.489397
38.0,1.1484375,-473099.884164,-6395.459938,-289638.911443,1751770.228359,-580393.621968,-710824.097493,-603551.817364,-763385.208057,-3820315.81644,-3424608.400417,-3431501.678407,-3188168.96536,-3057472.951111,-1031941.954129,-3382955.835218,-2726045.754677
39.0,1.15234375,-473144.945281,-6473.244008,-289629.791931,1751500.934541,-580423.662713,-710858.966215,-603446.138316,-763411.493708,-3820338.88344,-3424599.817348,-3431493.631779,-3188173.793337,-3057339.377086,-1032274.548086,-3382928.476683,-2726054.874188
40.0,1.15625,-473194.834375,-6634.176568,-289690.409862,1751316.934981,-580396.304178,-710840.190749,-603574.884364,-763384.135173,-3820305.624045,-3424545.100277,-3431442.669802,-3188129.268662,-3057464.368041,-1032724.622813,-3382863.567217,-2726006.59442
41.0,1.16015625,-473167.47584,-6318.748751,-289754.246444,1751390.963959,-580145.785826,-710583.771537,-603519.630852,-763145.954984,-3820040.621762,-3424291.363274,-3431186.787032,-3187853.0011,-3057364.053412,-1032603.386951,-3382600.17426,-2725745.347231
42.0,1.1640625,-473203.417445,-6179.810307,-289794.479584,1751567.453333,-573592.61198,-704092.824947,-598254.453928,-756658.763487,-3813497.10387,-3417686.691008,-3424597.67158,-3181233.844904,-3050914.412846,-1032302.443064,-3376056.119926,-2719201.829338
43.0,1.16796875,-473235.603957,-6495.774567,-289717.768397,1751644.16452,-577486.643492,-708020.115855,-600989.234565,-760515.78051,-3817421.712568,-3421550.145334,-3428543.201511,-3185194.93165,-3054394.311237,-1032351.795715,-3379968.926903,-2723062.601455
44.0,1.171875,-473234.531073,-6695.330941,-289738.153188,1751452.654773,-580484.280644,-710981.27496,-603393.030571,-763492.49643,-3820395.209836,-3424541.881626,-3431515.089454,-3188181.839965,-3057315.773644,-1032698.337161,-3382926.330915,-2726032.880072
45.0,1.17578125,-473195.370817,-6442.13038,-289805.744863,1751524.001542,-580493.936598,-710964.645262,-603543.234294,-763512.881221,-3820371.069952,-3424553.146905,-3431496.313989,-3188143.21615,-3057457.930739,-1032652.739603,-3382897.363054,-2726033.416514
46.0,1.1796875,-473115.440978,-6157.279749,-289820.765236,1751653.284032,-580500.910342,-710948.552006,-603511.584224,-763528.974477,-3820346.393626,-3424560.657091,-3431481.830058,-3188104.592336,-3057387.656854,-1032342.676204,-3382882.342682,-2726036.098723
47.0,1.18359375,-473109.540118,-6426.573566,-289796.08891,1751460.164959,-580503.056109,-710948.552006,-603356.552524,-763534.875337,-3820332.446138,-3424534.37144,-3431446.424895,-3188073.478707,-3057176.298759,-1032311.026133,-3382853.911263,-2726024.833444
48.0,1.1875,-473164.79363,-6740.9285,-289834.712724,1751206.427956,-580510.566295,-710965.181704,-603411.269595,-763545.067733,-3820333.519022,-3424509.158672,-3431420.675685,-3188057.385451,-3057211.16748,-1032526.675764,-3382823.334077,-2726013.031723
49.0,1.19140625,-473153.528351,-6564.439126,-289906.059492,1751231.640724,-580519.685807,-710967.327472,-603604.925109,-763559.015221,-3820326.008836,-3424507.549346,-3431418.529918,-3188041.292195,-3057409.650971,-1032542.76902,-3382806.704379,-2726007.667304
50.0,1.1953125,-473080.572257,-6212.533261,-289931.808702,1751395.255494,-580523.4409,-710952.307099,-603629.064993,-763570.816943,-3820306.696928,-3424511.840881,-3431415.311267,-3188015.542986,-3057420.379808,-1032228.950528,-3382802.412844,-2726005.521537
51.0,1.19921875,-473041.948443,-6393.850612,-289902.840841,1751255.244166,-580537.924831,-710964.645262,-603480.470595,-763589.592408,-3820308.306254,-3424498.966277,-3431402.436662,-3188003.741265,-3057230.479387,-1032131.318108,-3382797.048425,-2726007.667304
52.0,1.203125,-473091.301094,-6746.82936,-289926.444283,1750983.804582,-580559.918947,-710995.758891,-603495.490968,-763609.977199,-3820322.253742,-3424485.55523,-3431391.171383,-3188004.814149,-3057227.260736,-1032327.655831,-3382785.246704,-2726006.59442
53.0,1.20703125,-473093.446862,-6657.78001,-289993.499517,1750870.615348,-580579.230854,-711014.534356,-603685.391389,-763635.726408,-3820328.691045,-3424491.45609,-3431397.608685,-3188003.204823,-3057429.49932,-1032402.757693,-3382782.564495,-2726011.422397
54.0,1.2109375,-473022.636535,-6282.270704,-290029.441122,1751248.270422,-580563.67404,-710988.248704,-603752.983064,-763634.117083,-3820291.676556,-3424479.654369,-3431379.369662,-3187961.898799,-3057487.971483,-1032107.714666,-3382763.252588,-2725992.11049
55.0,1.21484375,-472981.330512,-6516.695799,-290001.546145,1751303.523934,-580569.038459,-710987.712263,-603613.508178,-763640.017943,-3820279.874835,-3424460.342462,-3431356.302661,-3187935.613148,-3057309.872783,-1031947.318548,-3382751.450867,-2725982.990978
56.0,1.21875,-473036.047582,-6743.610709,-290008.519889,1751028.329257,-580587.813924,-711014.534356,-603582.930992,-763653.965432,-3820291.140114,-3424434.056811,-3431335.381429,-3187929.175845,-3057252.473504,-1032112.006201,-3382733.211843,-2725975.480792
57.0,1.22265625,-473063.406117,-6687.284313,-290072.356471,1750945.180767,-580602.297855,-711034.919147,-603761.029692,-763671.131572,-3820294.358765,-3424427.083066,-3431334.844987,-3187925.957194,-3057435.40018,-1032242.361574,-3382718.727913,-2725971.725699
58.0,1.2265625,-473004.397512,-6286.562239,-290116.881146,1751122.743025,-580610.344483,-711034.919147,-603872.073158,-763687.76127,-3820282.557044,-3424437.275462,-3431340.745847,-3187905.572403,-3057540.006344,-1031990.770339,-3382720.87368,-2725974.407908
59.0,1.23046875,-472956.117744,-6262.958796,-290099.178564,1751106.649769,-580630.729274,-711046.720868,-603752.446622,-763712.974037,-3820287.921463,-3424444.785648,-3431341.818731,-3187896.452891,-3057389.802622,-1031642.083125,-3382724.628773,-2725986.209629
60.0,1.234375,-472981.330512,-6635.785894,-290098.105681,1750838.965278,-580637.703018,-711059.595473,-603677.881202,-763721.557107,-3820292.212998,-3424419.036438,-3431316.069521,-3187884.65117,-3057291.63376,-1031821.254709,-3382680.104098,-2725974.407908
61.0,1.23828125,-473008.152605,-6728.590337,-290158.723612,1750649.601299,-580640.385227,-711069.251426,-603831.303576,-763729.067293,-3820290.06723,-3424399.188089,-3431298.903382,-3187868.557914,-3057451.493436,-1032327.655831,-3382644.162493,-2725957.241769
62.0,1.2421875,-472966.846581,-6487.727939,-290214.513566,1750852.912766,-580630.192832,-711052.085287,-603974.533555,-763727.457968,-3820264.318021,-3424393.287229,-3431287.101661,-3187835.298519,-3057595.259857,-1032153.848666,-3382624.850586,-2725939.539187
63.0,1.24609375,-472920.712581,-6455.541427,-290198.956752,1751175.85077,-580626.974181,-711039.747124,-603885.484205,-763726.385084,-3820238.568811,-3424374.511763,-3431264.03466,-3187798.28403,-3057470.268902,-1031884.554849,-3382608.75733,-2725924.518815
64.0,1.25,-472943.779581,-6528.497521,-290179.644844,1750943.035,-580659.697134,-711079.443822,-603774.440738,-763760.180922,-3820260.026486,-3424368.074461,-3431262.961777,-3187806.8671,-3057322.747388,-1031947.85499,-3382613.048865,-2725937.393419
65.0,1.25390625,-472984.549163,-6685.674988,-290231.679706,1750763.863416,-580695.63874,-711121.822729,-603894.603717,-763799.341178,-3820288.994347,-3424374.511763,-3431276.372823,-3187826.715449,-3057446.129018,-1032140.974062,-3382617.876842,-2725951.87735
66.0,1.2578125,-472942.706697,-6358.981891,-290292.297637,1750886.172162,-580687.05567,-711104.120148,-604062.510021,-763795.049643,-3820260.562928,-3424362.1736,-3431259.743125,-3187787.018751,-3057610.280229,-1032018.665316,-3382593.736958,-2725929.346791
67.0,1.26171875,-472893.354046,-6130.994097,-290306.781567,1751011.699559,-578438.827805,-708866.084679,-602289.033209,-761570.961663,-3818001.069784,-3422097.85248,-3428987.911819,-3185494.802653,-3055388.874458,-1031713.966336,-3380342.826884,-2723683.801136
68.0,1.265625,-473021.02721,-6480.754194,-290300.880706,1750848.621231,-573404.857326,-703923.845759,-598068.3086,-756574.005672,-3813000.895143,-3416979.660628,-3423933.020107,-3180438.838057,-3050296.968257,-1031641.010242,-3375313.684382,-2718641.247587
69.0,1.26953125,-473028.537396,-6665.290197,-290270.30352,1750716.12009,-580142.567175,-710641.170817,-603280.377779,-763255.925567,-3819743.432968,-3423721.125569,-3430716.863956,-3187245.748907,-3056749.291032,-1032007.936479,-3382041.738277,-2725333.359877
70.0,1.2734375,-472966.310139,-6399.751472,-290327.7028,1750816.434719,-580720.315065,-711180.831335,-603884.411321,-763838.501434,-3820284.702812,-3424304.774321,-3431264.571102,-3187772.53482,-3057440.228157,-1032041.732316,-3382584.081004,-2725899.842489
71.0,1.27734375,-472867.604836,-6074.667701,-290343.259614,1750966.102,-580737.481205,-711170.102497,-603856.516344,-763870.687946,-3820270.218881,-3424327.841321,-3431258.670242,-3187740.88475,-3057378.000901,-1031718.25787,-3382581.398795,-2725915.935745
72.0,1.28125,-472822.543719,-6306.947029,-290312.145986,1750796.58637,-580753.038019,-711180.831335,-603699.338877,-763892.145621,-3820270.218881,-3424318.721809,-3431239.894776,-3187726.40082,-3057167.179247,-1031662.467916,-3382567.987748,-2725923.982373
73.0,1.28515625,-472882.625208,-6617.010429,-290345.941823,1750548.750228,-580757.865996,-711189.950846,-603744.399994,-763896.437156,-3820260.562928,-3424288.144623,-3431207.708264,-3187706.016029,-3057188.636921,-1031865.779384,-3382527.218166,-2725906.816233
74.0,1.2890625,-472871.359929,-6460.905845,-290411.924173,1750571.280786,-580750.35581,-711177.612683,-603941.274159,-763891.609179,-3820236.423044,-3424269.905599,-3431184.104822,-3187669.537982,-3057379.073784,-1031889.382826,-3382492.349445,-2725884.285675
75.0,1.29296875,-472793.575858,-6326.795379,-290433.381848,1750705.391253,-580756.793112,-711169.566055,-603978.288648,-763905.556668,-3820218.18402,-3424274.197134,-3431183.56838,-3187642.179446,-3057398.922133,-1031564.835497,-3382491.813003,-2725883.212791
76.0,1.296875,-472765.144439,-6312.311448,-290398.513126,1750623.852089,-580759.475322,-711169.029614,-603833.985786,-763912.530412,-3820202.090764,-3424248.984367,-3431155.673403,-3187617.503121,-3057207.412387,-1031443.599635,-3382473.037538,-2725871.41107
77.0,1.30078125,-472811.814882,-6486.655055,-290418.361475,1750580.93674,-580766.985508,-711183.513544,-603837.204437,-763922.186365,-3820205.845857,-3424221.089389,-3431134.75217,-3187606.237841,-3057191.855573,-1031625.453427,-3382447.288328,-2725861.218674
78.0,1.3046875,-472810.741998,-6408.334542,-290487.026034,1750557.869739,-580783.615206,-711202.289009,-604028.714183,-763942.034714,-3820208.528067,-3424220.552948,-3431133.679287,-3187598.727655,-3057386.58397,-1031708.065475,-3382436.023049,-2725858.000023
79.0,1.30859375,-472742.613881,-5997.956514,-290525.649849,1750750.988811,-580798.635578,-711203.361893,-604110.789789,-763964.028831,-3820202.090764,-3424243.083506,-3431144.408124,-3187583.170841,-3057464.368041,-1031311.634935,-3382441.923909,-2725866.046651
80.0,1.3125,-472699.698532,-6039.79898,-290499.364197,1750694.125973,-580818.483927,-711218.382265,-603975.606439,-763989.241599,-3820217.111137,-3424251.666576,-3431145.481008,-3187577.806422,-3057305.581248,-1031038.049583,-3382425.830653,-2725878.384814
81.0,1.31640625,-472722.22909,-6405.652333,-290503.655732,1750426.441482,-580818.483927,-711226.428893,-603931.081764,-763987.632273,-3820211.746718,-3424212.50632,-3431110.075845,-3187554.20298,-3057236.91669,-1031657.103498,-3382372.722909,-2725856.390698
82.0,1.3203125,-472750.124067,-6421.209147,-290565.882989,1750336.85569,-580813.65595,-711227.501777,-604102.743161,-763984.413622,-3820198.872113,-3424186.220668,-3431089.154612,-3187531.672422,-3057415.015389,-1031885.627733,-3382337.854187,-2725833.323697
83.0,1.32421875,-472707.74516,-6112.755074,-290612.553431,1750453.263575,-580830.285648,-711233.402638,-604220.760372,-764006.94418,-3820195.11702,-3424206.605459,-3431104.174984,-3187518.261375,-3057534.641926,-1031641.546683,-3382346.437257,-2725841.906767
84.0,1.328125,-472652.491647,-6155.133981,-290587.877105,1750541.776483,-580844.769579,-711241.985708,-604106.498254,-764030.011181,-3820189.752601,-3424208.214785,-3431096.128356,-3187502.168119,-3057388.729738,-1031401.757169,-3382350.19235,-2725844.588976
85.0,1.33203125,-472663.756927,-6286.562239,-290579.830477,1750510.662855,-580853.88909,-711259.151847,-604021.203997,-764040.203576,-3820189.752601,-3424177.101156,-3431070.915588,-3187493.585049,-3057273.931178,-1031505.826891,-3382330.880443,-2725833.860139
86.0,1.3359375,-472706.672276,-6382.048891,-290638.302641,1750375.479505,-580883.929835,-711294.020569,-604164.433976,-764068.634995,-3820211.210276,-3424177.101156,-3431076.816449,-3187502.168119,-3057425.207785,-1031677.488289,-3382326.588908,-2725839.224558
87.0,1.33984375,-472664.293368,-6008.14891,-290696.238362,1750529.974762,-580868.909463,-711270.953568,-604313.028373,-764063.270576,-3820178.487322,-3424164.226552,-3431060.723193,-3187463.007863,-3057572.729298,-1031499.389589,-3382302.985466,-2725816.157558
88.0,1.34375,-472585.972856,-5835.95107,-290687.118851,1750597.566437,-580885.53916,-711277.927313,-604229.879884,-764086.874019,-3820175.805113,-3424170.663854,-3431064.478286,-3187450.6697,-3057463.831599,-1031211.320306,-3382316.396513,-2725829.568604
89.0,1.34765625,-472600.456786,-6173.909446,-290668.879827,1750356.167597,-580865.690811,-711262.370498,-604110.253347,-764063.270576,-3820146.30081,-3424113.264574,-3431009.224774,-3187405.072141,-3057303.971923,-1031259.600074,-3382266.507419,-2725787.726139
90.0,1.3515625,-472646.054345,-6371.856495,-290720.914688,1750166.803618,-580864.617928,-711268.271359,-604224.515465,-764063.270576,-3820140.39995,-3424083.22383,-3430982.40268,-3187389.515327,-3057416.088273,-1031457.547123,-3382233.248023,-2725765.732022
91.0,1.35546875,-472605.821205,-6058.038003,-290782.069061,1750276.774201,-580873.200997,-711271.49001,-604393.494653,-764080.436716,-3820131.81688,-3424089.12469,-3430986.694215,-3187375.567839,-3057592.041205,-1031353.477401,-3382228.420046,-2725764.122696
92.0,1.359375,-472530.719344,-5797.863698,-290787.43348,1750322.37176,-580858.180625,-711243.595033,-604313.028373,-764073.999414,-3820093.193065,-3424066.05769,-3430962.554331,-3187328.360954,-3057478.31553,-1031041.804676,-3382210.181023,-2725741.592138
93.0,1.36328125,-472613.867833,-6122.411027,-290798.162317,1750268.191131,-575122.544184,-705572.331616,-599654.030759,-758392.007159,-3814372.040555,-3418263.366015,-3425171.664378,-3181534.25235,-3051752.335042,-1031012.836815,-3376462.206419,-2720009.174348
94.0,1.3671875,-472736.176579,-6392.241286,-290804.599619,1750344.365876,-576817.164042,-707323.27787,-600858.879192,-760065.169342,-3816106.893552,-3419913.99764,-3426909.199585,-3183283.052836,-3053363.80641,-1031189.32619,-3378161.654253,-2721669.461926
95.0,1.37109375,-472656.783182,-6144.941586,-290827.66662,1750413.566877,-580972.979185,-711425.985268,-604233.098535,-764194.162392,-3820236.959486,-3424097.171318,-3431075.207123,-3187439.404421,-3057493.872344,-1031377.080843,-3382296.548163,-2725797.382092
96.0,1.375,-472552.177018,-6048.918491,-290841.614108,1750572.35367,-580968.151208,-711393.262314,-604199.302697,-764202.20902,-3820193.507694,-3424097.171318,-3431040.338402,-3187379.859374,-3057423.598459,-1031071.308979,-3382268.116745,-2725793.090557
97.0,1.37890625,-472516.235413,-6011.904003,-290807.281829,1750410.884668,-580986.390231,-711401.845384,-604035.687928,-764222.593811,-3820184.924625,-3424085.369597,-3431016.198518,-3187356.255931,-3057203.120852,-1030999.425769,-3382250.950605,-2725800.064301
98.0,1.3828125,-472557.541437,-6240.96468,-290839.468341,1750154.465455,-580994.973301,-711409.892012,-604065.19223,-764232.249764,-3820181.705973,-3424057.47462,-3430986.157773,-3187336.407582,-3057204.730177,-1031198.982143,-3382213.936116,-2725787.189697
99.0,1.38671875,-472543.057506,-6096.125376,-290907.596458,1750159.293432,-581009.993674,-711418.475082,-604258.847744,-764253.170997,-3820180.096648,-3424062.302597,-3430985.08489,-3187324.069419,-3057392.484831,-1031239.215283,-3382199.452186,-2725787.189697
100.0,1.390625,-472465.273436,-5708.277906,-290940.319412,1750340.074341,-580987.999557,-711381.997035,-604310.346164,-764239.223509,-3820129.671112,-3424039.772038,-3430955.044145,-3187267.743023,-3057416.624715,-1030927.542559,-3382167.802115,-2725758.221836
101.0,1.39453125,-472433.086924,-5838.63328,-290915.643086,1750232.249526,-581020.186069,-711409.892012,-604167.116185,-764275.701556,-3820145.764368,-3424046.209341,-3430958.799238,-3187272.571,-3057233.161596,-1030792.89565,-3382181.213162,-2725779.679511
102.0,1.3984375,-472479.757366,-6204.486633,-290936.027877,1749959.200616,-581066.32007,-711463.536199,-604155.314464,-764321.835556,-3820187.070392,-3424058.011062,-3430970.600959,-3187299.393094,-3057206.875945,-1030970.457908,-3382194.087767,-2725806.501604
103.0,1.40234375,-472485.121785,-6157.81619,-291005.76532,1749906.092871,-581043.789511,-711445.833617,-604343.069117,-764302.523649,-3820154.347438,-3424022.069457,-3430933.050028,-3187257.014186,-3057395.16704,-1031058.434374,-3382144.735115,-2725767.341348
104.0,1.40625,-472412.702133,-5746.365279,-291045.99846,1750009.089709,-581058.809883,-711446.906501,-604431.582025,-764329.345742,-3820155.956764,-3424048.89155,-3430946.461075,-3187243.603139,-3057491.726576,-1030574.027368,-3382147.417324,-2725776.997301
105.0,1.41015625,-472366.03169,-5767.286511,-291022.931459,1750134.617106,-581066.856511,-711451.198036,-604301.226652,-764348.65765,-3820157.566089,-3424047.818666,-3430937.878005,-3187228.046325,-3057333.476226,-1030554.179019,-3382114.694371,-2725779.679511
106.0,1.4140625,-472407.337714,-6144.405144,-291028.295878,1750031.083826,-581086.168419,-711479.093013,-604243.827372,-764368.505999,-3820170.977136,-3424029.043201,-3430923.930517,-3187228.046325,-3057258.374364,-1031121.198073,-3382090.554487,-2725779.679511
107.0,1.41796875,-472427.722505,-6200.73154,-291091.596018,1749923.259011,-581050.763255,-711448.515826,-604412.270118,-764331.49151,-3820125.379577,-3423970.034596,-3430868.140563,-3187170.647045,-3057427.353552,-1031301.978982,-3382024.035695,-2725722.816673
108.0,1.421875,-472385.880039,-6025.851491,-291139.875786,1750092.238199,-581054.518349,-711441.00564,-604537.797515,-764336.855929,-3820103.921903,-3423971.107479,-3430865.458353,-3187142.215627,-3057559.854693,-1031074.52763,-3382014.379741,-2725712.087835
109.0,1.42578125,-472348.329109,-5938.411467,-291117.88167,1750107.795013,-581105.480326,-711486.603199,-604429.436258,-764392.645883,-3820136.108415,-3424006.512643,-3430898.181307,-3187163.136859,-3057431.108645,-1030826.691488,-3382054.612881,-2725753.393859
110.0,1.4296875,-472379.442737,-6029.070142,-291108.762158,1749842.792731,-581133.911745,-711523.081246,-604332.34028,-764420.004418,-3820157.029647,-3423995.247363,-3430892.816888,-3187169.574162,-3057305.044807,-1030923.787466,-3382053.539998,-2725761.976929
111.0,1.43359375,-472423.43097,-6162.107725,-291165.624996,1749678.641519,-581155.369419,-711550.439781,-604471.278724,-764439.852767,-3820166.685601,-3423987.737177,-3430889.061795,-3187170.647045,-3057447.201901,-1031111.005677,-3382040.665393,-2725758.221836
112.0,1.4375,-472374.61476,-5811.274744,-291224.097159,1749803.096033,-581148.932117,-711534.346525,-604625.773981,-764440.925651,-3820143.082159,-3423978.617666,-3430876.187191,-3187138.460533,-3057605.452252,-1030961.338396,-3382021.889928,-2725742.12858
113.0,1.44140625,-472300.049341,-5622.983649,-291220.878508,1749792.367195,-581161.806722,-711536.492292,-604553.890771,-764467.747744,-3820138.790624,-3423982.372759,-3430877.796516,-3187123.976603,-3057504.601181,-1030675.414881,-3382030.472997,-2725748.565882
114.0,1.4453125,-472321.507015,-5962.014909,-291201.566601,1749834.746103,-581187.01949,-711568.678804,-604427.290491,-764496.715605,-3820153.810996,-3423973.253247,-3430869.749888,-3187127.731696,-3057339.913528,-1030716.184463,-3382028.32723,-2725758.758278
115.0,1.44921875,-472376.224086,-6190.539144,-291253.06502,1749723.702636,-581175.75421,-711568.142363,-604529.214445,-764484.913884,-3820137.181298,-3423934.092991,-3430835.417609,-3187099.836719,-3057434.863738,-1030928.079,-3381986.484764,-2725727.644649
116.0,1.453125,-472343.501132,-5904.615629,-291315.828719,1749816.507079,-581168.244024,-711555.8042,-604704.630936,-764480.622349,-3820115.723624,-3423921.218386,-3430821.47012,-3187067.650207,-3057613.49888,-1030851.367814,-3381963.954206,-2725705.114091
117.0,1.45703125,-472265.180619,-5628.348068,-291323.338905,1749939.888709,-581171.462676,-711546.684688,-604672.444424,-764494.569837,-3820100.16681,-3423917.999735,-3430818.787911,-3187042.437439,-3057552.880949,-1030536.476438,-3381963.954206,-2725702.431882
118.0,1.4609375,-472257.670433,-5909.980048,-291299.199021,1749741.405218,-580784.688089,-711163.665195,-604222.369697,-764111.550344,-3819697.835409,-3423494.21066,-3430392.316627,-3186626.158551,-3056980.497477,-1030520.383182,-3381552.503294,-2725300.100482
119.0,1.46484375,-472433.086924,-6252.229959,-291370.545789,1749530.047122,-574147.829312,-704608.882023,-599068.23624,-757524.044219,-3813085.116516,-3416772.057625,-3423699.131453,-3179930.291168,-3050633.317308,-1030711.356486,-3374892.041074,-2718655.195076
120.0,1.46875,-472448.107296,-6013.513328,-291375.910208,1749656.110961,-578556.845016,-709035.063867,-602528.286282,-761894.97255,-3817514.517011,-3421181.609771,-3428184.321902,-3184407.971431,-3054984.933732,-1030743.006556,-3379320.368686,-2723027.196291
121.0,1.47265625,-472322.579899,-5621.910765,-291371.618673,1749919.503918,-581176.827094,-711603.011084,-604545.307701,-764508.517326,-3820096.948158,-3423831.096152,-3430800.012445,-3187003.813625,-3057445.592576,-1030516.091647,-3381934.449903,-2725639.131741
122.0,1.4765625,-472255.524666,-5823.612907,-291341.041486,1749769.836637,-581191.311025,-711598.183107,-604360.235257,-764535.339419,-3820084.609995,-3423823.049524,-3430768.898817,-3186973.77288,-3057205.803061,-1030436.161809,-3381914.065112,-2725648.251253
123.0,1.48046875,-472278.055224,-6171.227237,-291367.86358,1749504.297913,-581219.206002,-711623.932317,-604367.209001,-764564.843722,-3820101.239693,-3423819.830873,-3430758.706422,-3186972.163555,-3057190.782689,-1030637.86395,-3381897.971856,-2725660.052974
124.0,1.484375,-472266.789945,-6074.667701,-291435.991697,1749491.95975,-581193.993234,-711592.282247,-604557.109422,-764542.849605,-3820059.93367,-3423783.889268,-3430714.718189,-3186916.910042,-3057370.490714,-1030698.481881,-3381838.426809,-2725618.74695
125.0,1.48828125,-472210.463549,-5952.358955,-291463.350232,1749676.495752,-581229.934839,-711613.739921,-604615.045144,-764584.692071,-3820063.688763,-3423814.466454,-3430737.785189,-3186914.764275,-3057413.406064,-1030390.027808,-3381858.8116,-2725645.032602
126.0,1.4921875,-472167.5482,-5854.726536,-291426.335743,1749585.300635,-581229.934839,-711609.448386,-604475.033817,-764585.764955,-3820047.595507,-3423794.618105,-3430706.671561,-3186880.968437,-3057231.015829,-1030104.640735,-3381831.453065,-2725632.694439
127.0,1.49609375,-472206.172014,-6043.554073,-291440.283232,1749311.715282,-581232.617048,-711617.495014,-604455.721909,-764585.764955,-3820044.913297,-3423762.431593,-3430675.02149,-3186862.192972,-3057199.365759,-1030395.928668,-3381778.34532,-2725613.382532
128.0,1.5,-472230.311898,-6014.586212,-291505.192698,1749245.732933,-581242.809444,-711628.223852,-604639.185028,-764599.176001,-3820046.522623,-3423755.994291,-3430664.829095,-3186848.781925,-3057396.776366,-1030759.099812,-3381752.059669,-2725604.26302
129.0,1.50390625,-472154.137153,-5596.697998,-291547.035163,1749352.484864,-581253.001839,-711625.005201,-604742.718308,-764619.560792,-3820036.866669,-3423769.405338,-3430673.412165,-3186828.933576,-3057495.481669,-1030491.415321,-3381756.887645,-2725608.018113
130.0,1.5078125,-472091.373454,-5585.432718,-291523.968163,1749492.496192,-581267.48577,-711636.806922,-604622.55533,-764645.846444,-3820037.403111,-3423768.868896,-3430672.339281,-3186819.814064,-3057338.304202,-1030275.76569,-3381763.86139,-2725617.674067
131.0,1.51171875,-472138.043897,-5955.041165,-291520.21307,1749408.81126,-581257.829816,-711635.197596,-604559.25519,-764634.581165,-3820019.164088,-3423718.979802,-3430626.741722,-3186787.627552,-3057246.036201,-1030401.293087,-3381720.94604,-2725584.414671
132.0,1.515625,-472161.110897,-6017.804863,-291578.685233,1749294.549143,-581301.281607,-711682.40448,-604722.333517,-764681.251607,-3820054.569251,-3423741.51036,-3430653.027374,-3186813.913204,-3057420.379808,-1030557.934112,-3381738.648622,-2725611.773206
133.0,1.51953125,-472096.737873,-5620.30144,-291630.720095,1749465.137656,-581325.421491,-711693.669759,-604858.05331,-764712.365235,-3820054.032809,-3423765.650244,-3430672.339281,-3186810.694553,-3057560.927577,-1030341.74804,-3381752.59611,-2725627.33002
134.0,1.5234375,-472021.636012,-5497.992694,-291616.236164,1749502.688587,-581325.421491,-711685.623131,-604763.639541,-764719.33898,-3820039.012437,-3423756.530733,-3430654.100258,-3186781.726692,-3057436.473064,-1029954.973454,-3381739.185064,-2725620.356276
135.0,1.52734375,-472035.047058,-5855.262978,-291605.507327,1749247.8787,-581308.255352,-711674.894294,-604662.252028,-764704.318607,-3820022.382739,-3423709.323848,-3430605.284048,-3186743.639319,-3057311.482109,-1030082.646618,-3381672.666272,-2725586.560438
136.0,1.53125,-472067.770012,-6015.659096,-291658.07863,1749077.290187,-581310.937561,-711683.477364,-604790.461634,-764707.000817,-3820018.627646,-3423684.111081,-3430586.508582,-3186728.082505,-3057446.665459,-1030584.219764,-3381634.042458,-2725566.712089
137.0,1.53515625,-472035.5835,-5850.971443,-291716.550793,1749125.569955,-581360.290213,-711723.710504,-604951.930636,-764761.717887,-3820045.986181,-3423729.708639,-3430627.814606,-3186749.54018,-3057620.472624,-1030457.083041,-3381667.301854,-2725601.044369
138.0,1.5390625,-471986.76729,-5735.636441,-291706.89484,1749391.108679,-581371.01905,-711727.465597,-604888.630496,-764778.347585,-3820035.257344,-3423730.781523,-3430625.132397,-3186727.009622,-3057527.13174,-1030150.774735,-3381671.056947,-2725602.653694
139.0,1.54296875,-472001.251221,-5714.178767,-291681.14563,1749338.000934,-581377.456352,-711740.876644,-604755.592913,-764784.248446,-3820030.429367,-3423698.058569,-3430597.23742,-3186709.843482,-3057350.105923,-1030167.404433,-3381652.281481,-2725591.924857
140.0,1.546875,-472051.140314,-5926.073304,-291728.888956,1749123.960629,-581366.727515,-711738.730876,-604844.642263,-764775.665376,-3820014.872553,-3423655.679662,-3430560.759373,-3186683.021388,-3057432.717971,-1030371.252343,-3381610.439016,-2725560.811229
141.0,1.55078125,-472018.417361,-5652.487952,-291793.798422,1749211.400653,-581396.231818,-711762.87076,-605023.813847,-764807.315446,-3820027.747158,-3423678.21022,-3430582.753489,-3186685.703598,-3057618.863299,-1030304.733551,-3381622.240737,-2725576.368043
142.0,1.5546875,-471937.951081,-5348.861855,-291802.381492,1749351.948422,-581402.132678,-711756.9699,-605003.965497,-764823.945144,-3820012.726785,-3423681.428871,-3430581.144164,-3186662.636597,-3057569.510647,-1029981.259105,-3381625.459388,-2725575.831601
143.0,1.55859375,-471922.930708,-5612.254812,-291773.950073,1749163.120885,-581415.543725,-711771.45383,-604855.3711,-764838.429074,-3820011.11746,-3423661.04408,-3430562.90514,-3186652.980644,-3057376.391575,-1029939.953082,-3381616.876318,-2725573.685834
144.0,1.5625,-472018.417361,-5933.58349,-291826.521376,1748938.888185,-578807.89981,-709191.704892,-602856.052262,-762250.097066,-3817404.546428,-3421002.97463,-3427906.981457,-3184004.567147,-3054884.082661,-1030154.529828,-3378972.754356,-2722948.339337
145.0,1.56640625,-472130.533711,-5779.088232,-291904.841889,1749013.453604,-574315.735616,-704785.371397,-599360.597057,-757793.338036,-3812947.787398,-3416452.338273,-3423426.082543,-3179499.528348,-3050668.186029,-1030119.124665,-3374494.537651,-2718446.51919
146.0,1.5703125,-472001.251221,-5354.762716,-291859.780772,1749325.126329,-581036.815767,-711461.390431,-604573.73912,-764467.211302,-3819655.456502,-3423213.115121,-3430206.707741,-3186269.961151,-3057108.170641,-1029926.005593,-3381234.393267,-2725138.63148
147.0,1.57421875,-471920.784941,-5529.106322,-291825.984934,1749226.421026,-581443.975144,-711839.581947,-604711.60468,-764885.099517,-3820032.038692,-3423609.545661,-3430568.269559,-3186630.450085,-3057257.837922,-1029867.53343,-3381610.975458,-2725542.572205
148.0,1.578125,-471958.872313,-5885.303722,-291850.66126,1748955.517883,-581466.505702,-711857.820971,-604698.193633,-764910.848726,-3820037.939553,-3423600.426149,-3430546.275442,-3186620.794132,-3057217.604782,-1030063.334711,-3381584.689806,-2725549.54595
149.0,1.58203125,-471954.580778,-5791.962837,-291920.398703,1748928.695789,-581474.015888,-711860.50318,-604879.510984,-764928.014866,-3820028.283599,-3423597.207498,-3430535.010163,-3186597.727132,-3057394.630598,-1030136.827247,-3381558.940596,-2725544.181531
150.0,1.5859375,-471876.260266,-5390.167879,-291955.267424,1749120.205536,-581467.578586,-711834.217529,-604944.42045,-764932.842843,-3819995.024204,-3423594.525289,-3430519.989791,-3186558.030433,-3057437.545948,-1029835.883359,-3381541.238015,-2725533.989136
151.0,1.58984375,-471818.860986,-5471.707043,-291930.054656,1749039.739256,-581484.208284,-711841.727715,-604803.336239,-764953.764075,-3819990.732669,-3423589.16087,-3430508.18807,-3186541.937177,-3057247.645527,-1029670.122823,-3381537.482922,-2725539.889996
152.0,1.59375,-471873.578057,-5856.335861,-291942.392819,1748748.987764,-581509.421052,-711875.523552,-604769.540402,-764975.758192,-3820008.43525,-3423576.286265,-3430499.605,-3186544.619387,-3057190.782689,-1029830.518941,-3381525.144759,-2725546.327298
153.0,1.59765625,-471890.207754,-5876.18421,-292009.984494,1748602.539134,-581501.910866,-711870.159134,-604948.711985,-764972.003099,-3819989.123343,-3423548.391288,-3430471.710023,-3186515.651526,-3057370.490714,-1029953.364128,-3381487.593828,-2725518.432321
154.0,1.6015625,-471845.683079,-5730.808464,-292052.899844,1749003.261209,-581516.931238,-711871.232017,-605057.609684,-764988.632797,-3819980.540273,-3423565.557428,-3430473.85579,-3186489.902316,-3057477.779088,-1029522.601309,-3381481.692968,-2725518.432321
155.0,1.60546875,-471800.085521,-5583.286951,-292024.468425,1749053.150303,-581528.196517,-711876.059994,-604939.592473,-765003.116727,-3819981.076715,-3423567.166754,-3430464.736279,-3186473.272618,-3057323.820272,-1029361.668749,-3381450.042897,-2725522.723856
156.0,1.609375,-471810.814358,-5736.172883,-292016.958239,1748780.637834,-581558.237262,-711915.220251,-604863.417728,-765035.303239,-3820010.044576,-3423563.948102,-3430463.126953,-3186485.610781,-3057220.286992,-1029979.64978,-3381432.340316,-2725535.062019
157.0,1.61328125,-471851.047498,-5830.586652,-292079.185495,1748646.527367,-581568.429657,-711931.313507,-605018.98587,-765044.959193,-3820011.11746,-3423547.318405,-3430451.861674,-3186476.49127,-3057370.490714,-1030216.220643,-3381408.736874,-2725523.79674
158.0,1.6171875,-471806.522823,-5453.468019,-292132.29324,1748803.704834,-581559.846587,-711909.855832,-605162.215848,-765043.349867,-3819982.149599,-3423538.735335,-3430437.914185,-3186438.403897,-3057510.502042,-1030024.710897,-3381388.352083,-2725505.021275
159.0,1.62109375,-471727.665869,-5314.529576,-292120.491519,1748848.765951,-581544.826215,-711886.25239,-605072.093615,-765036.376123,-3819948.353761,-3423513.522567,-3430407.873441,-3186393.34278,-3057388.193296,-1029750.589103,-3381365.821524,-2725481.954274
160.0,1.625,-471752.878636,-5673.945626,-292108.153356,1748522.609296,-581557.70082,-711907.173623,-604960.513706,-765050.323612,-3819951.572412,-3423487.773357,-3430386.952208,-3186384.223269,-3057241.744666,-1029817.644336,-3381350.801152,-2725476.053414
161.0,1.62890625,-471807.595707,-5862.773164,-292163.406868,1748486.667691,-581566.820331,-711928.631297,-605079.067359,-765065.880426,-3819959.082599,-3423471.143659,-3430375.150487,-3186379.931734,-3057364.589854,-1030017.737152,-3381330.952803,-2725468.006786
162.0,1.6328125,-471766.826125,-5538.762276,-292226.170567,1748754.352183,-581577.549169,-711930.240623,-605246.973663,-765086.265217,-3819956.400389,-3423480.799613,-3430383.197115,-3186368.666454,-3057540.542786,-1029897.574174,-3381328.270594,-2725468.006786
163.0,1.63671875,-471686.359845,-5303.264296,-292227.779892,1748856.276137,-581570.575425,-711914.147367,-605197.621011,-765088.947426,-3819932.260505,-3423468.997892,-3430368.713184,-3186333.797733,-3057461.685832,-1029588.583659,-3381321.296849,-2725458.350832
164.0,1.640625,-471680.458984,-5618.692114,-292204.712892,1748633.652763,-581576.476285,-711923.266879,-605060.291894,-765093.775403,-3819927.96897,-3423439.493589,-3430341.354649,-3186316.631593,-3057283.587132,-1029599.848938,-3381301.4485,-2725448.158437
165.0,1.64453125,-471735.176055,-5888.522373,-292250.310451,1748405.664969,-581590.423774,-711946.333879,-605145.049708,-765106.113566,-3819936.015598,-3423422.863891,-3430329.016486,-3186313.949384,-3057357.079668,-1029812.279917,-3381283.745919,-2725441.184693
166.0,1.6484375,-471712.109055,-5681.455813,-292315.756359,1748460.38204,-581624.756053,-711976.911065,-605331.195036,-765146.346706,-3819953.71818,-3423447.003775,-3430353.692812,-3186323.068896,-3057546.980089,-1029766.682359,-3381298.766291,-2725461.569483
167.0,1.65234375,-471671.875915,-5603.671742,-292325.948754,1748537.093227,-581644.604402,-711986.567019,-605319.929757,-765171.559473,-3819944.062226,-3423456.123287,-3430360.666556,-3186306.97564,-3057517.475786,-1029447.499448,-3381308.958686,-2725468.543228
168.0,1.65625,-471669.193705,-5603.1353,-292293.2258,1748632.043437,-581656.406123,-712001.587391,-605171.33536,-765188.189171,-3819942.989343,-3423437.347822,-3430342.963975,-3186296.246802,-3057327.575365,-1029396.001029,-3381301.984942,-2725465.861018
169.0,1.66015625,-471713.181938,-5839.706163,-292329.703847,1748442.679458,-581681.082449,-712034.846787,-605212.641384,-765212.329055,-3819963.910575,-3423428.22831,-3430337.063114,-3186301.611221,-3057359.225435,-1029609.504892,-3381291.792547,-2725467.470344
170.0,1.6640625,-471760.925264,-5720.616069,-292418.216755,1748490.422784,-577451.77477,-707841.480713,-602103.424323,-761017.890098,-3815735.67578,-3419160.296817,-3426071.277388,-3182017.05003,-3053461.975272,-1029623.45238,-3377042.100077,-2721232.261805
171.0,1.66796875,-471793.111776,-5413.234879,-292426.799825,1748723.238554,-576054.880149,-706500.912488,-600862.634285,-759634.406523,-3814363.993927,-3417736.04366,-3424716.761674,-3180631.420688,-3052048.450953,-1029156.747956,-3375670.954665,-2719824.101904
172.0,1.671875,-471693.870031,-5436.838321,-292345.797103,1748667.4486,-581655.333239,-712054.695136,-605038.297777,-765192.480706,-3819948.353761,-3423351.517123,-3430330.625812,-3186258.695872,-3057220.823433,-1029385.272191,-3381250.486523,-2725393.441366
173.0,1.67578125,-471704.598868,-5794.108605,-292369.936987,1748396.009016,-581733.11731,-712120.141044,-605027.032498,-765278.311405,-3820004.143715,-3423402.479101,-3430358.520789,-3186295.71036,-3057189.173363,-1029706.600869,-3381279.990826,-2725463.178809
174.0,1.6796875,-471691.724264,-5726.516929,-292439.67443,1748351.484341,-581747.064799,-712122.823253,-605198.693895,-765298.159754,-3819996.633529,-3423403.015542,-3430342.427533,-3186272.64336,-3057354.9339,-1029803.160406,-3381254.778058,-2725461.033042
175.0,1.68359375,-471611.794425,-5320.430436,-292480.980454,1748537.629668,-581748.137682,-712102.974904,-605272.186431,-765310.497917,-3819970.347878,-3423409.452845,-3430331.698696,-3186235.09243,-3057412.33318,-1029516.700449,-3381238.684802,-2725456.741507
176.0,1.6875,-471571.561285,-5376.756832,-292458.449895,1748475.402412,-581735.79952,-712081.517229,-605135.930197,-765303.524173,-3819938.161366,-3423379.4121,-3430291.465556,-3186190.567755,-3057230.479387,-1029339.138191,-3381204.352522,-2725433.138065
177.0,1.69140625,-471613.940193,-5761.922093,-292468.642291,1748197.525525,-581733.653752,-712088.490974,-605091.941964,-765302.451289,-3819928.505412,-3423337.033193,-3430251.768857,-3186163.745661,-3057161.278386,-1029498.997867,-3381163.582941,-2725411.68039
178.0,1.6953125,-471632.179216,-5791.426395,-292534.62464,1748100.429547,-581733.11731,-712085.808764,-605267.358454,-765299.76908,-3819916.167249,-3423312.893309,-3430230.311183,-3186139.069335,-3057343.668621,-1029644.373613,-3381131.93287,-2725391.295599
179.0,1.69921875,-471566.733309,-5389.631437,-292585.050176,1748277.455363,-581734.190194,-712073.470601,-605386.98499,-765309.425033,-3819895.782458,-3423316.11196,-3430227.628973,-3186110.101475,-3057463.295157,-1029405.12054,-3381123.886242,-2725384.321855
180.0,1.703125,-471502.360285,-5335.98725,-292569.493362,1748277.991805,-581754.038543,-712087.954532,-605275.941524,-765340.00222,-3819899.001109,-3423323.622146,-3430232.45695,-3186105.80994,-3057321.138063,-1029170.159003,-3381136.224405,-2725397.196459
181.0,1.70703125,-471526.500169,-5715.25165,-292565.738269,1747949.689382,-581748.137682,-712091.173183,-605193.865918,-765334.101359,-3819885.053621,-3423278.024587,-3430190.078043,-3186076.305637,-3057208.485271,-1029280.129585,-3381098.673475,-2725371.983692
182.0,1.7109375,-471554.931588,-5837.023954,-292626.892641,1747878.879056,-581745.455473,-712096.00116,-605342.996757,-765336.783568,-3819878.616319,-3423253.884703,-3430165.938159,-3186055.384404,-3057360.298319,-1029461.983378,-3381065.414079,-2725351.062459
183.0,1.71484375,-471503.96961,-5473.316368,-292684.828363,1748268.335851,-581735.79952,-712074.543485,-605498.028457,-765334.637801,-3819850.1849,-3423243.692308,-3430152.527112,-3186021.588566,-3057513.720693,-1029293.00419,-3381046.638614,-2725333.359877
184.0,1.71875,-471444.961005,-5449.176484,-292677.854619,1748334.854643,-581768.522473,-712098.146927,-605418.635061,-765371.65229,-3819858.767969,-3423261.39489,-3430168.620368,-3186023.734334,-3057412.869622,-1029015.663745,-3381070.242056,-2725356.963319
185.0,1.72265625,-471480.366168,-5736.172883,-292658.542712,1748086.482058,-581810.364939,-712147.499579,-605305.445827,-765414.031197,-3819889.881598,-3423265.686424,-3430176.130554,-3186040.364032,-3057268.56676,-1029075.208792,-3381083.653102,-2725378.957436
186.0,1.7265625,-471546.348518,-5840.779047,-292714.332666,1747889.607893,-581820.557334,-712164.665719,-605423.463037,-765421.541383,-3819893.100249,-3423243.692308,-3430158.427973,-3186029.098753,-3057383.901761,-1029283.884678,-3381056.294567,-2725362.86418
187.0,1.73046875,-471514.162006,-5533.934299,-292778.70569,1747997.432708,-581830.74973,-712167.88437,-605601.561737,-765436.561756,-3819888.272272,-3423252.275378,-3430164.328833,-3186015.687706,-3057567.901321,-1029139.581816,-3381049.857265,-2725361.791296
188.0,1.734375,-471434.232168,-5275.905761,-292786.752318,1748112.231268,-581833.968381,-712160.910626,-605567.229458,-765452.11857,-3819883.444295,-3423262.467773,-3430162.183066,-3185992.620706,-3057515.86646,-1028646.59174,-3381035.373334,-2725364.473506
189.0,1.73828125,-471435.305051,-5579.531858,-292765.831085,1747851.520521,-581830.74973,-712160.910626,-605432.046107,-765449.972802,-3819871.106132,-3423226.526168,-3430125.705019,-3185965.798612,-3057340.986412,-1029061.261304,-3380983.338473,-2725344.088715
190.0,1.7421875,-471498.605192,-5861.70028,-292809.282876,1747613.340332,-581846.842986,-712187.732719,-605510.903062,-765468.748268,-3819881.298528,-3423207.750703,-3430113.903298,-3185964.725729,-3057411.796738,-1029458.228285,-3380961.880799,-2725338.724296
191.0,1.74609375,-471476.611075,-5653.560836,-292878.483877,1748002.797127,-581860.790475,-712201.680207,-605700.267041,-765492.35171,-3819882.907853,-3423216.333773,-3430122.486368,-3185957.751984,-3057605.988694,-1029436.234169,-3380960.807915,-2725341.942947
192.0,1.75,-471411.165167,-5562.365718,-292894.040691,1748195.379757,-581861.863358,-712188.805603,-605701.339924,-765498.25257,-3819859.840853,-3423213.115121,-3430111.75753,-3185922.883263,-3057589.358996,-1029117.5877,-3380951.151961,-2725330.677668
193.0,1.75390625,-471387.025283,-5609.036161,-292865.609272,1748026.400569,-581866.154893,-712193.097138,-605555.964179,-765500.398338,-3819849.648458,-3423182.537935,-3430083.862553,-3185901.425588,-3057398.385691,-1029054.287559,-3380932.376496,-2725316.730179
194.0,1.7578125,-471431.013516,-5803.764558,-292900.477994,1747759.25252,-581880.638824,-712217.237022,-605589.760016,-765514.882268,-3819858.231528,-3423161.616702,-3430067.769297,-3185900.352705,-3057417.161157,-1029267.791422,-3380914.673914,-2725309.219993
195.0,1.76171875,-471446.57033,-5673.945626,-292976.116297,1747763.007613,-581214.378025,-711555.8042,-605253.410966,-764858.813865,-3819182.314775,-3422479.799089,-3429384.342359,-3185205.124045,-3056952.066058,-1029324.117818,-3380225.346115,-2724629.548148
196.0,1.765625,-471511.479796,-5389.631437,-293042.635088,1747996.359825,-574551.233596,-704958.105678,-599987.161158,-758250.922948,-3812523.998323,-3415760.864706,-3422692.230069,-3178472.778615,-3050492.233097,-1028962.556,-3373569.711872,-2717970.695254
197.0,1.76953125,-471473.392424,-5468.488391,-292951.439971,1747955.590243,-579902.77766,-710313.941278,-603892.457949,-763557.405896,-3817891.099202,-3421104.898584,-3428100.100529,-3183891.914355,-3055406.040598,-1028901.938069,-3378935.203425,-2723284.151946
198.0,1.7734375,-471465.345796,-5769.432279,-292953.049297,1747721.701589,-581947.694057,-712330.962697,-605437.410526,-765593.739223,-3819918.849459,-3423142.304795,-3430111.75753,-3185919.664612,-3057284.660016,-1029270.473632,-3380942.032449,-2725313.511528
199.0,1.77734375,-471457.299168,-5735.636441,-293023.859623,1747659.474332,-581943.402522,-712310.041465,-605600.488854,-765598.5672,-3819890.41804,-3423124.065772,-3430073.133716,-3185875.139937,-3057431.645087,-1029387.417959,-3380894.825565,-2725295.808947
200.0,1.78125,-471378.442213,-5338.66946,-293068.92074,1747838.645916,-581951.985592,-712296.093976,-605680.955134,-765616.269781,-3819868.960365,-3423139.622586,-3430067.769297,-3185840.271215,-3057491.726576,-1029120.269909,-3380883.023844,-2725300.100482
201.0,1.78515625,-471339.818399,-5379.975483,-293052.291042,1747781.783078,-581954.667801,-712287.510906,-605553.818411,-765623.779967,-3819851.257783,-3423123.52933,-3430042.556529,-3185807.01182,-3057308.7999,-1028937.879674,-3380862.639053,-2725294.736063
202.0,1.7890625,-471398.827004,-5781.234,-293064.629205,1747495.859563,-581982.562778,-712322.916069,-605507.147969,-765651.138502,-3819868.423923,-3423112.800492,-3430031.827692,-3185809.694029,-3057222.969201,-1029096.666467,-3380854.592425,-2725300.100482
203.0,1.79296875,-471427.258423,-5850.971443,-293134.366648,1747374.623701,-581978.807685,-712322.379628,-605678.809366,-765649.529177,-3819850.721341,-3423084.369073,-3430004.469157,-3185783.944819,-3057385.511087,-1029262.963446,-3380815.432169,-2725277.033481
204.0,1.796875,-471372.004911,-5469.024833,-293190.156602,1747537.165587,-581977.19836,-712305.74993,-605811.310507,-765656.502921,-3819828.190783,-3423087.051283,-3429999.104738,-3185754.440517,-3057508.356274,-1029052.141792,-3380800.411797,-2725267.91397
205.0,1.80078125,-471302.267468,-5400.360274,-293181.573532,1747502.296865,-581974.51615,-712295.021092,-605713.141646,-765661.86734,-3819811.561085,-3423073.640236,-3429977.647063,-3185723.86333,-3057367.808505,-1028817.716696,-3380788.073634,-2725259.867342
